%OpenBCI Raw EEG Data
%
%Sample Rate = 125.0 Hz
%First Column = SampleIndex
%Last Column = Timestamp 
%Other Columns = EEG data in microvolts followed by Accel Data (in G) interleaved with Aux Data
0, -25244.46, -25209.95, 28349.25, 27577.38, -25338.18, 72.31, -21442.65, 26933.14, -9029.86, -9030.62, 14283.52, -9062.02, 34327.79, 64926.74, 39049.32, -5296.92, 0.000, 0.000, 0.000, 15:21:00.960
1, 0.00, 0.00, 0.00, 0.00, 0.00, 0.00, -12240.78, 0.00, 0.00, 0.00, 0.00, 0.00, 0.00, 0.00, 0.00, 0.00, 0.000, 0.000, 0.000, 15:21:01.443
2, 0.00, 0.00, 0.00, 0.00, 0.00, 0.00, -24480.08, 0.00, 0.00, 0.00, 0.00, 0.00, 0.00, 0.00, 0.00, 0.00, 0.000, 0.000, 0.000, 15:21:01.444
3, 0.00, 0.00, 0.00, 0.00, 0.00, 0.00, -24220.75, 0.00, 0.00, 0.00, 0.00, 0.00, 0.00, 0.00, 0.00, 0.00, 0.000, 0.000, 0.000, 15:21:01.444
4, 0.00, 0.00, 0.00, 0.00, 0.00, 0.00, -24575.32, 0.00, 0.00, 0.00, 0.00, 0.00, 0.00, 0.00, 0.00, 0.00, 0.000, 0.000, 0.000, 15:21:01.445
5, 0.00, 0.00, 0.00, 0.00, 0.00, 0.00, -24185.53, 0.00, 0.00, 0.00, 0.00, 0.00, 0.00, 0.00, 0.00, 0.00, 0.000, 0.000, 0.000, 15:21:01.446
7, 0.00, 0.00, 0.00, 0.00, 0.00, 0.00, -24083.91, 0.00, 0.00, 0.00, 0.00, 0.00, 0.00, 0.00, 0.00, 0.00, 0.000, 0.000, 0.000, 15:21:01.446
8, 0.00, 0.00, 0.00, 0.00, 0.00, 0.00, -24612.33, 0.00, 0.00, 0.00, 0.00, 0.00, 0.00, 0.00, 0.00, 0.00, 0.000, 0.000, 0.000, 15:21:01.447
9, 0.00, 0.00, 0.00, 0.00, 0.00, 0.00, -24070.84, 0.00, 0.00, 0.00, 0.00, 0.00, 0.00, 0.00, 0.00, 0.00, 0.000, 0.000, 0.000, 15:21:01.448
10, 0.00, 0.00, 0.00, 0.00, 0.00, 0.00, -24644.85, 0.00, 0.00, 0.00, 0.00, 0.00, 0.00, 0.00, 0.00, 0.00, 0.000, 0.000, 0.000, 15:21:01.448
11, 0.00, 0.00, 0.00, 0.00, 0.00, 0.00, -24044.15, 0.00, 0.00, 0.00, 0.00, 0.00, 0.00, 0.00, 0.00, 0.00, 0.000, 0.000, 0.000, 15:21:01.448
12, 0.00, 0.00, 0.00, 0.00, 0.00, 0.00, -24639.24, 0.00, 0.00, 0.00, 0.00, 0.00, 0.00, 0.00, 0.00, 0.00, 0.000, 0.000, 0.000, 15:21:01.449
13, 0.00, 0.00, 0.00, 0.00, 0.00, 0.00, -24045.18, 0.00, 0.00, 0.00, 0.00, 0.00, 0.00, 0.00, 0.00, 0.00, 0.000, 0.000, 0.000, 15:21:01.449
14, 0.00, 0.00, 0.00, 0.00, 0.00, 0.00, -24639.82, 0.00, 0.00, 0.00, 0.00, 0.00, 0.00, 0.00, 0.00, 0.00, 0.000, 0.000, 0.000, 15:21:01.450
15, 0.00, 0.00, 0.00, 0.00, 0.00, 0.00, -24085.30, 0.00, 0.00, 0.00, 0.00, 0.00, 0.00, 0.00, 0.00, 0.00, 0.000, 0.000, 0.000, 15:21:01.450
16, 0.00, 0.00, 0.00, 0.00, 0.00, 0.00, -24595.19, 0.00, 0.00, 0.00, 0.00, 0.00, 0.00, 0.00, 0.00, 0.00, 0.000, 0.000, 0.000, 15:21:01.453
17, 0.00, 0.00, 0.00, 0.00, 0.00, 0.00, -24131.57, 0.00, 0.00, 0.00, 0.00, 0.00, 0.00, 0.00, 0.00, 0.00, 0.000, 0.000, 0.000, 15:21:01.454
18, 0.00, 0.00, 0.00, 0.00, 0.00, 0.00, -24538.46, 0.00, 0.00, 0.00, 0.00, 0.00, 0.00, 0.00, 0.00, 0.00, 0.000, 0.000, 0.000, 15:21:01.455
19, 0.00, 0.00, 0.00, 0.00, 0.00, 0.00, -24168.11, 0.00, 0.00, 0.00, 0.00, 0.00, 0.00, 0.00, 0.00, 0.00, 0.000, 0.000, 0.000, 15:21:01.455
20, 0.00, 0.00, 0.00, 0.00, 0.00, 0.00, -24474.56, 0.00, 0.00, 0.00, 0.00, 0.00, 0.00, 0.00, 0.00, 0.00, 0.000, 0.000, 0.000, 15:21:01.456
21, 0.00, 0.00, 0.00, 0.00, 0.00, 0.00, -24250.64, 0.00, 0.00, 0.00, 0.00, 0.00, 0.00, 0.00, 0.00, 0.00, 0.000, 0.000, 0.000, 15:21:01.457
22, 0.00, 0.00, 0.00, 0.00, 0.00, 0.00, -24390.85, 0.00, 0.00, 0.00, 0.00, 0.00, 0.00, 0.00, 0.00, 0.00, 0.000, 0.000, 0.000, 15:21:01.457
23, 0.00, 0.00, 0.00, 0.00, 0.00, 0.00, -24317.33, 0.00, 0.00, 0.00, 0.00, 0.00, 0.00, 0.00, 0.00, 0.00, 0.000, 0.000, 0.000, 15:21:01.458
24, 0.00, 0.00, 0.00, 0.00, 0.00, 0.00, -24290.45, 0.00, 0.00, 0.00, 0.00, 0.00, 0.00, 0.00, 0.00, 0.00, 0.000, 0.000, 0.000, 15:21:01.458
25, 0.00, 0.00, 0.00, 0.00, 0.00, 0.00, -24366.42, 0.00, 0.00, 0.00, 0.00, 0.00, 0.00, 0.00, 0.00, 0.00, 0.000, 0.000, 0.000, 15:21:01.459
26, 0.00, 0.00, 0.00, 0.00, 0.00, 0.00, -24234.23, 0.00, 0.00, 0.00, 0.00, 0.00, 0.00, 0.00, 0.00, 0.00, 0.000, 0.000, 0.000, 15:21:01.459
27, 0.00, 0.00, 0.00, 0.00, 0.00, 0.00, -24424.69, 0.00, 0.00, 0.00, 0.00, 0.00, 0.00, 0.00, 0.00, 0.00, 0.000, 0.000, 0.000, 15:21:01.460
28, 0.00, 0.00, 0.00, 0.00, 0.00, 0.00, -24120.77, 0.00, 0.00, 0.00, 0.00, 0.00, 0.00, 0.00, 0.00, 0.00, 0.000, 0.000, 0.000, 15:21:01.460
29, 0.00, 0.00, 0.00, 0.00, 0.00, 0.00, -24470.55, 0.00, 0.00, 0.00, 0.00, 0.00, 0.00, 0.00, 0.00, 0.00, 0.000, 0.000, 0.000, 15:21:01.461
30, 0.00, 0.00, 0.00, 0.00, 0.00, 0.00, -24060.69, 0.00, 0.00, 0.00, 0.00, 0.00, 0.00, 0.00, 0.00, 0.00, 0.000, 0.000, 0.000, 15:21:01.464
31, 0.00, 0.00, 0.00, 0.00, 0.00, 0.00, -24532.00, 0.00, 0.00, 0.00, 0.00, 0.00, 0.00, 0.00, 0.00, 0.00, 0.000, 0.000, 0.000, 15:21:01.466
32, 0.00, 0.00, 0.00, 0.00, 0.00, 0.00, -24048.69, 0.00, 0.00, 0.00, 0.00, 0.00, 0.00, 0.00, 0.00, 0.00, 0.000, 0.000, 0.000, 15:21:01.466
33, 0.00, 0.00, 0.00, 0.00, 0.00, 0.00, -24580.14, 0.00, 0.00, 0.00, 0.00, 0.00, 0.00, 0.00, 0.00, 0.00, 0.000, 0.000, 0.000, 15:21:01.467
34, 0.00, 0.00, 0.00, 0.00, 0.00, 0.00, -24019.50, 0.00, 0.00, 0.00, 0.00, 0.00, 0.00, 0.00, 0.00, 0.00, 0.000, 0.000, 0.000, 15:21:01.467
35, 0.00, 0.00, 0.00, 0.00, 0.00, 0.00, -24607.10, 0.00, 0.00, 0.00, 0.00, 0.00, 0.00, 0.00, 0.00, 0.00, 0.000, 0.000, 0.000, 15:21:01.467
36, 0.00, 0.00, 0.00, 0.00, 0.00, 0.00, -24012.59, 0.00, 0.00, 0.00, 0.00, 0.00, 0.00, 0.00, 0.00, 0.00, 0.000, 0.000, 0.000, 15:21:01.467
37, 0.00, 0.00, 0.00, 0.00, 0.00, 0.00, -24603.59, 0.00, 0.00, 0.00, 0.00, 0.00, 0.00, 0.00, 0.00, 0.00, 0.000, 0.000, 0.000, 15:21:01.468
38, 0.00, 0.00, 0.00, 0.00, 0.00, 0.00, -24017.98, 0.00, 0.00, 0.00, 0.00, 0.00, 0.00, 0.00, 0.00, 0.00, 0.000, 0.000, 0.000, 15:21:01.468
39, 0.00, 0.00, 0.00, 0.00, 0.00, 0.00, -24589.29, 0.00, 0.00, 0.00, 0.00, 0.00, 0.00, 0.00, 0.00, 0.00, 0.000, 0.000, 0.000, 15:21:01.468
40, 0.00, 0.00, 0.00, 0.00, 0.00, 0.00, -24054.28, 0.00, 0.00, 0.00, 0.00, 0.00, 0.00, 0.00, 0.00, 0.00, 0.000, 0.000, 0.000, 15:21:01.469
41, 0.00, 0.00, 0.00, 0.00, 0.00, 0.00, -24524.13, 0.00, 0.00, 0.00, 0.00, 0.00, 0.00, 0.00, 0.00, 0.00, 0.000, 0.000, 0.000, 15:21:01.469
42, 0.00, 0.00, 0.00, 0.00, 0.00, 0.00, -24093.82, 0.00, 0.00, 0.00, 0.00, 0.00, 0.00, 0.00, 0.00, 0.00, 0.000, 0.000, 0.000, 15:21:01.470
43, 0.00, 0.00, 0.00, 0.00, 0.00, 0.00, -24491.14, 0.00, 0.00, 0.00, 0.00, 0.00, 0.00, 0.00, 0.00, 0.00, 0.000, 0.000, 0.000, 15:21:01.471
44, 0.00, 0.00, 0.00, 0.00, 0.00, 0.00, -24156.56, 0.00, 0.00, 0.00, 0.00, 0.00, 0.00, 0.00, 0.00, 0.00, 0.000, 0.000, 0.000, 15:21:01.471
45, 0.00, 0.00, 0.00, 0.00, 0.00, 0.00, -24420.62, 0.00, 0.00, 0.00, 0.00, 0.00, 0.00, 0.00, 0.00, 0.00, 0.000, 0.000, 0.000, 15:21:01.471
46, 0.00, 0.00, 0.00, 0.00, 0.00, 0.00, -24221.80, 0.00, 0.00, 0.00, 0.00, 0.00, 0.00, 0.00, 0.00, 0.00, 0.000, 0.000, 0.000, 15:21:01.472
47, 0.00, 0.00, 0.00, 0.00, 0.00, 0.00, -24343.53, 0.00, 0.00, 0.00, 0.00, 0.00, 0.00, 0.00, 0.00, 0.00, 0.000, 0.000, 0.000, 15:21:01.472
48, 0.00, 0.00, 0.00, 0.00, 0.00, 0.00, -24293.13, 0.00, 0.00, 0.00, 0.00, 0.00, 0.00, 0.00, 0.00, 0.00, 0.000, 0.000, 0.000, 15:21:01.472
49, 0.00, 0.00, 0.00, 0.00, 0.00, 0.00, -24265.50, 0.00, 0.00, 0.00, 0.00, 0.00, 0.00, 0.00, 0.00, 0.00, 0.000, 0.000, 0.000, 15:21:01.473
50, 0.00, 0.00, 0.00, 0.00, 0.00, 0.00, -24359.40, 0.00, 0.00, 0.00, 0.00, 0.00, 0.00, 0.00, 0.00, 0.00, 0.000, 0.000, 0.000, 15:21:01.473
51, 0.00, 0.00, 0.00, 0.00, 0.00, 0.00, -24207.90, 0.00, 0.00, 0.00, 0.00, 0.00, 0.00, 0.00, 0.00, 0.00, 0.000, 0.000, 0.000, 15:21:01.473
52, 0.00, 0.00, 0.00, 0.00, 0.00, 0.00, -24445.83, 0.00, 0.00, 0.00, 0.00, 0.00, 0.00, 0.00, 0.00, 0.00, 0.000, 0.000, 0.000, 15:21:01.474
53, 0.00, 0.00, 0.00, 0.00, 0.00, 0.00, -24145.02, 0.00, 0.00, 0.00, 0.00, 0.00, 0.00, 0.00, 0.00, 0.00, 0.000, 0.000, 0.000, 15:21:01.474
54, 0.00, 0.00, 0.00, 0.00, 0.00, 0.00, -24522.41, 0.00, 0.00, 0.00, 0.00, 0.00, 0.00, 0.00, 0.00, 0.00, 0.000, 0.000, 0.000, 15:21:01.474
55, 0.00, 0.00, 0.00, 0.00, 0.00, 0.00, -24099.74, 0.00, 0.00, 0.00, 0.00, 0.00, 0.00, 0.00, 0.00, 0.00, 0.000, 0.000, 0.000, 15:21:01.474
56, 0.00, 0.00, 0.00, 0.00, 0.00, 0.00, -24542.19, 0.00, 0.00, 0.00, 0.00, 0.00, 0.00, 0.00, 0.00, 0.00, 0.000, 0.000, 0.000, 15:21:01.475
57, 0.00, 0.00, 0.00, 0.00, 0.00, 0.00, -24050.14, 0.00, 0.00, 0.00, 0.00, 0.00, 0.00, 0.00, 0.00, 0.00, 0.000, 0.000, 0.000, 15:21:01.475
58, 0.00, 0.00, 0.00, 0.00, 0.00, 0.00, -24598.50, 0.00, 0.00, 0.00, 0.00, 0.00, 0.00, 0.00, 0.00, 0.00, 0.000, 0.000, 0.000, 15:21:01.476
59, 0.00, 0.00, 0.00, 0.00, 0.00, 0.00, -24041.51, 0.00, 0.00, 0.00, 0.00, 0.00, 0.00, 0.00, 0.00, 0.00, 0.000, 0.000, 0.000, 15:21:01.476
60, 0.00, 0.00, 0.00, 0.00, 0.00, 0.00, -24594.25, 0.00, 0.00, 0.00, 0.00, 0.00, 0.00, 0.00, 0.00, 0.00, 0.000, 0.000, 0.000, 15:21:01.477
61, 0.00, 0.00, 0.00, 0.00, 0.00, 0.00, -23984.16, 0.00, 0.00, 0.00, 0.00, 0.00, 0.00, 0.00, 0.00, 0.00, 0.000, 0.000, 0.000, 15:21:01.937
62, 0.00, 0.00, 0.00, 0.00, 0.00, 0.00, -24580.68, 0.00, 0.00, 0.00, 0.00, 0.00, 0.00, 0.00, 0.00, 0.00, 0.000, 0.000, 0.000, 15:21:01.938
63, 0.00, 0.00, 0.00, 0.00, 0.00, 0.00, -24015.09, 0.00, 0.00, 0.00, 0.00, 0.00, 0.00, 0.00, 0.00, 0.00, 0.000, 0.000, 0.000, 15:21:01.938
64, 0.00, 0.00, 0.00, 0.00, 0.00, 0.00, -24574.89, 0.00, 0.00, 0.00, 0.00, 0.00, 0.00, 0.00, 0.00, 0.00, 0.000, 0.000, 0.000, 15:21:01.938
65, 0.00, 0.00, 0.00, 0.00, 0.00, 0.00, -24058.97, 0.00, 0.00, 0.00, 0.00, 0.00, 0.00, 0.00, 0.00, 0.00, 0.000, 0.000, 0.000, 15:21:01.939
66, 0.00, 0.00, 0.00, 0.00, 0.00, 0.00, -24518.32, 0.00, 0.00, 0.00, 0.00, 0.00, 0.00, 0.00, 0.00, 0.00, 0.000, 0.000, 0.000, 15:21:01.939
67, 0.00, 0.00, 0.00, 0.00, 0.00, 0.00, -24083.00, 0.00, 0.00, 0.00, 0.00, 0.00, 0.00, 0.00, 0.00, 0.00, 0.000, 0.000, 0.000, 15:21:01.939
68, 0.00, 0.00, 0.00, 0.00, 0.00, 0.00, -24440.25, 0.00, 0.00, 0.00, 0.00, 0.00, 0.00, 0.00, 0.00, 0.00, 0.000, 0.000, 0.000, 15:21:01.940
69, 0.00, 0.00, 0.00, 0.00, 0.00, 0.00, -24129.22, 0.00, 0.00, 0.00, 0.00, 0.00, 0.00, 0.00, 0.00, 0.00, 0.000, 0.000, 0.000, 15:21:01.940
70, 0.00, 0.00, 0.00, 0.00, 0.00, 0.00, -24377.48, 0.00, 0.00, 0.00, 0.00, 0.00, 0.00, 0.00, 0.00, 0.00, 0.000, 0.000, 0.000, 15:21:01.940
71, 0.00, 0.00, 0.00, 0.00, 0.00, 0.00, -24219.39, 0.00, 0.00, 0.00, 0.00, 0.00, 0.00, 0.00, 0.00, 0.00, 0.000, 0.000, 0.000, 15:21:01.941
72, 0.00, 0.00, 0.00, 0.00, 0.00, 0.00, -24307.79, 0.00, 0.00, 0.00, 0.00, 0.00, 0.00, 0.00, 0.00, 0.00, 0.000, 0.000, 0.000, 15:21:01.941
73, 0.00, 0.00, 0.00, 0.00, 0.00, 0.00, -24302.94, 0.00, 0.00, 0.00, 0.00, 0.00, 0.00, 0.00, 0.00, 0.00, 0.000, 0.000, 0.000, 15:21:01.941
74, 0.00, 0.00, 0.00, 0.00, 0.00, 0.00, -24233.85, 0.00, 0.00, 0.00, 0.00, 0.00, 0.00, 0.00, 0.00, 0.00, 0.000, 0.000, 0.000, 15:21:01.942
75, 0.00, 0.00, 0.00, 0.00, 0.00, 0.00, -24369.12, 0.00, 0.00, 0.00, 0.00, 0.00, 0.00, 0.00, 0.00, 0.00, 0.000, 0.000, 0.000, 15:21:01.942
76, 0.00, 0.00, 0.00, 0.00, 0.00, 0.00, -24173.01, 0.00, 0.00, 0.00, 0.00, 0.00, 0.00, 0.00, 0.00, 0.00, 0.000, 0.000, 0.000, 15:21:01.959
77, 0.00, 0.00, 0.00, 0.00, 0.00, 0.00, -24436.76, 0.00, 0.00, 0.00, 0.00, 0.00, 0.00, 0.00, 0.00, 0.00, 0.000, 0.000, 0.000, 15:21:01.959
78, 0.00, 0.00, 0.00, 0.00, 0.00, 0.00, -24109.13, 0.00, 0.00, 0.00, 0.00, 0.00, 0.00, 0.00, 0.00, 0.00, 0.000, 0.000, 0.000, 15:21:01.960
79, 0.00, 0.00, 0.00, 0.00, 0.00, 0.00, -24485.04, 0.00, 0.00, 0.00, 0.00, 0.00, 0.00, 0.00, 0.00, 0.00, 0.000, 0.000, 0.000, 15:21:01.960
80, 0.00, 0.00, 0.00, 0.00, 0.00, 0.00, -24046.47, 0.00, 0.00, 0.00, 0.00, 0.00, 0.00, 0.00, 0.00, 0.00, 0.000, 0.000, 0.000, 15:21:01.960
81, 0.00, 0.00, 0.00, 0.00, 0.00, 0.00, -24541.41, 0.00, 0.00, 0.00, 0.00, 0.00, 0.00, 0.00, 0.00, 0.00, 0.000, 0.000, 0.000, 15:21:01.960
82, 0.00, 0.00, 0.00, 0.00, 0.00, 0.00, -24027.43, 0.00, 0.00, 0.00, 0.00, 0.00, 0.00, 0.00, 0.00, 0.00, 0.000, 0.000, 0.000, 15:21:01.961
83, 0.00, 0.00, 0.00, 0.00, 0.00, 0.00, -24578.38, 0.00, 0.00, 0.00, 0.00, 0.00, 0.00, 0.00, 0.00, 0.00, 0.000, 0.000, 0.000, 15:21:01.961
84, 0.00, 0.00, 0.00, 0.00, 0.00, 0.00, -23995.04, 0.00, 0.00, 0.00, 0.00, 0.00, 0.00, 0.00, 0.00, 0.00, 0.000, 0.000, 0.000, 15:21:01.961
85, 0.00, 0.00, 0.00, 0.00, 0.00, 0.00, -24596.93, 0.00, 0.00, 0.00, 0.00, 0.00, 0.00, 0.00, 0.00, 0.00, 0.000, 0.000, 0.000, 15:21:01.962
86, 0.00, 0.00, 0.00, 0.00, 0.00, 0.00, -24019.99, 0.00, 0.00, 0.00, 0.00, 0.00, 0.00, 0.00, 0.00, 0.00, 0.000, 0.000, 0.000, 15:21:01.962
87, 0.00, 0.00, 0.00, 0.00, 0.00, 0.00, -24600.40, 0.00, 0.00, 0.00, 0.00, 0.00, 0.00, 0.00, 0.00, 0.00, 0.000, 0.000, 0.000, 15:21:01.962
88, 0.00, 0.00, 0.00, 0.00, 0.00, 0.00, -24030.61, 0.00, 0.00, 0.00, 0.00, 0.00, 0.00, 0.00, 0.00, 0.00, 0.000, 0.000, 0.000, 15:21:01.962
89, 0.00, 0.00, 0.00, 0.00, 0.00, 0.00, -24559.25, 0.00, 0.00, 0.00, 0.00, 0.00, 0.00, 0.00, 0.00, 0.00, 0.000, 0.000, 0.000, 15:21:01.963
90, 0.00, 0.00, 0.00, 0.00, 0.00, 0.00, -24056.82, 0.00, 0.00, 0.00, 0.00, 0.00, 0.00, 0.00, 0.00, 0.00, 0.000, 0.000, 0.000, 15:21:01.963
91, 0.00, 0.00, 0.00, 0.00, 0.00, 0.00, -24529.47, 0.00, 0.00, 0.00, 0.00, 0.00, 0.00, 0.00, 0.00, 0.00, 0.000, 0.000, 0.000, 15:21:01.965
92, 0.00, 0.00, 0.00, 0.00, 0.00, 0.00, -24120.41, 0.00, 0.00, 0.00, 0.00, 0.00, 0.00, 0.00, 0.00, 0.00, 0.000, 0.000, 0.000, 15:21:01.966
93, 0.00, 0.00, 0.00, 0.00, 0.00, 0.00, -24483.45, 0.00, 0.00, 0.00, 0.00, 0.00, 0.00, 0.00, 0.00, 0.00, 0.000, 0.000, 0.000, 15:21:01.966
94, 0.00, 0.00, 0.00, 0.00, 0.00, 0.00, -24179.18, 0.00, 0.00, 0.00, 0.00, 0.00, 0.00, 0.00, 0.00, 0.00, 0.000, 0.000, 0.000, 15:21:01.966
95, 0.00, 0.00, 0.00, 0.00, 0.00, 0.00, -24395.92, 0.00, 0.00, 0.00, 0.00, 0.00, 0.00, 0.00, 0.00, 0.00, 0.000, 0.000, 0.000, 15:21:01.966
96, 0.00, 0.00, 0.00, 0.00, 0.00, 0.00, -24258.19, 0.00, 0.00, 0.00, 0.00, 0.00, 0.00, 0.00, 0.00, 0.00, 0.000, 0.000, 0.000, 15:21:01.967
97, 0.00, 0.00, 0.00, 0.00, 0.00, 0.00, -24328.71, 0.00, 0.00, 0.00, 0.00, 0.00, 0.00, 0.00, 0.00, 0.00, 0.000, 0.000, 0.000, 15:21:01.967
98, 0.00, 0.00, 0.00, 0.00, 0.00, 0.00, -24345.59, 0.00, 0.00, 0.00, 0.00, 0.00, 0.00, 0.00, 0.00, 0.00, 0.000, 0.000, 0.000, 15:21:01.967
99, 0.00, 0.00, 0.00, 0.00, 0.00, 0.00, -24259.67, 0.00, 0.00, 0.00, 0.00, 0.00, 0.00, 0.00, 0.00, 0.00, 0.000, 0.000, 0.000, 15:21:01.968
100, 0.00, 0.00, 0.00, 0.00, 0.00, 0.00, -24427.08, 0.00, 0.00, 0.00, 0.00, 0.00, 0.00, 0.00, 0.00, 0.00, 0.000, 0.000, 0.000, 15:21:01.968
101, 0.00, 0.00, 0.00, 0.00, 0.00, 0.00, -24181.50, 0.00, 0.00, 0.00, 0.00, 0.00, 0.00, 0.00, 0.00, 0.00, 0.000, 0.000, 0.000, 15:21:01.968
102, 0.00, 0.00, 0.00, 0.00, 0.00, 0.00, -24464.41, 0.00, 0.00, 0.00, 0.00, 0.00, 0.00, 0.00, 0.00, 0.00, 0.000, 0.000, 0.000, 15:21:01.968
103, 0.00, 0.00, 0.00, 0.00, 0.00, 0.00, -24137.00, 0.00, 0.00, 0.00, 0.00, 0.00, 0.00, 0.00, 0.00, 0.00, 0.000, 0.000, 0.000, 15:21:01.969
104, 0.00, 0.00, 0.00, 0.00, 0.00, 0.00, -24539.71, 0.00, 0.00, 0.00, 0.00, 0.00, 0.00, 0.00, 0.00, 0.00, 0.000, 0.000, 0.000, 15:21:01.969
105, 0.00, 0.00, 0.00, 0.00, 0.00, 0.00, -24096.59, 0.00, 0.00, 0.00, 0.00, 0.00, 0.00, 0.00, 0.00, 0.00, 0.000, 0.000, 0.000, 15:21:01.969
106, 0.00, 0.00, 0.00, 0.00, 0.00, 0.00, -24581.02, 0.00, 0.00, 0.00, 0.00, 0.00, 0.00, 0.00, 0.00, 0.00, 0.000, 0.000, 0.000, 15:21:01.970
107, 0.00, 0.00, 0.00, 0.00, 0.00, 0.00, -24062.39, 0.00, 0.00, 0.00, 0.00, 0.00, 0.00, 0.00, 0.00, 0.00, 0.000, 0.000, 0.000, 15:21:01.975
108, 0.00, 0.00, 0.00, 0.00, 0.00, 0.00, -24616.13, 0.00, 0.00, 0.00, 0.00, 0.00, 0.00, 0.00, 0.00, 0.00, 0.000, 0.000, 0.000, 15:21:01.975
109, 0.00, 0.00, 0.00, 0.00, 0.00, 0.00, -24032.53, 0.00, 0.00, 0.00, 0.00, 0.00, 0.00, 0.00, 0.00, 0.00, 0.000, 0.000, 0.000, 15:21:01.976
110, 0.00, 0.00, 0.00, 0.00, 0.00, 0.00, -24623.02, 0.00, 0.00, 0.00, 0.00, 0.00, 0.00, 0.00, 0.00, 0.00, 0.000, 0.000, 0.000, 15:21:01.976
111, 0.00, 0.00, 0.00, 0.00, 0.00, 0.00, -24025.60, 0.00, 0.00, 0.00, 0.00, 0.00, 0.00, 0.00, 0.00, 0.00, 0.000, 0.000, 0.000, 15:21:01.976
112, 0.00, 0.00, 0.00, 0.00, 0.00, 0.00, -24610.37, 0.00, 0.00, 0.00, 0.00, 0.00, 0.00, 0.00, 0.00, 0.00, 0.000, 0.000, 0.000, 15:21:01.976
113, 0.00, 0.00, 0.00, 0.00, 0.00, 0.00, -24071.55, 0.00, 0.00, 0.00, 0.00, 0.00, 0.00, 0.00, 0.00, 0.00, 0.000, 0.000, 0.000, 15:21:01.977
114, 0.00, 0.00, 0.00, 0.00, 0.00, 0.00, -24597.22, 0.00, 0.00, 0.00, 0.00, 0.00, 0.00, 0.00, 0.00, 0.00, 0.000, 0.000, 0.000, 15:21:01.977
115, 0.00, 0.00, 0.00, 0.00, 0.00, 0.00, -24099.40, 0.00, 0.00, 0.00, 0.00, 0.00, 0.00, 0.00, 0.00, 0.00, 0.000, 0.000, 0.000, 15:21:01.977
116, 0.00, 0.00, 0.00, 0.00, 0.00, 0.00, -24516.58, 0.00, 0.00, 0.00, 0.00, 0.00, 0.00, 0.00, 0.00, 0.00, 0.000, 0.000, 0.000, 15:21:01.977
117, 0.00, 0.00, 0.00, 0.00, 0.00, 0.00, -24105.95, 0.00, 0.00, 0.00, 0.00, 0.00, 0.00, 0.00, 0.00, 0.00, 0.000, 0.000, 0.000, 15:21:01.978
118, 0.00, 0.00, 0.00, 0.00, 0.00, 0.00, -24458.28, 0.00, 0.00, 0.00, 0.00, 0.00, 0.00, 0.00, 0.00, 0.00, 0.000, 0.000, 0.000, 15:21:01.978
119, 0.00, 0.00, 0.00, 0.00, 0.00, 0.00, -24196.92, 0.00, 0.00, 0.00, 0.00, 0.00, 0.00, 0.00, 0.00, 0.00, 0.000, 0.000, 0.000, 15:21:01.979
120, 0.00, 0.00, 0.00, 0.00, 0.00, 0.00, -24400.37, 0.00, 0.00, 0.00, 0.00, 0.00, 0.00, 0.00, 0.00, 0.00, 0.000, 0.000, 0.000, 15:21:01.979
121, 0.00, 0.00, 0.00, 0.00, 0.00, 0.00, -24252.92, 0.00, 0.00, 0.00, 0.00, 0.00, 0.00, 0.00, 0.00, 0.00, 0.000, 0.000, 0.000, 15:21:02.404
122, 0.00, 0.00, 0.00, 0.00, 0.00, 0.00, -24317.49, 0.00, 0.00, 0.00, 0.00, 0.00, 0.00, 0.00, 0.00, 0.00, 0.000, 0.000, 0.000, 15:21:02.405
123, 0.00, 0.00, 0.00, 0.00, 0.00, 0.00, -24346.50, 0.00, 0.00, 0.00, 0.00, 0.00, 0.00, 0.00, 0.00, 0.00, 0.000, 0.000, 0.000, 15:21:02.405
124, 0.00, 0.00, 0.00, 0.00, 0.00, 0.00, -24254.14, 0.00, 0.00, 0.00, 0.00, 0.00, 0.00, 0.00, 0.00, 0.00, 0.000, 0.000, 0.000, 15:21:02.405
125, 0.00, 0.00, 0.00, 0.00, 0.00, 0.00, -24435.08, 0.00, 0.00, 0.00, 0.00, 0.00, 0.00, 0.00, 0.00, 0.00, 0.000, 0.000, 0.000, 15:21:02.405
126, 0.00, 0.00, 0.00, 0.00, 0.00, 0.00, -24184.92, 0.00, 0.00, 0.00, 0.00, 0.00, 0.00, 0.00, 0.00, 0.00, 0.000, 0.000, 0.000, 15:21:02.406
127, 0.00, 0.00, 0.00, 0.00, 0.00, 0.00, -24492.13, 0.00, 0.00, 0.00, 0.00, 0.00, 0.00, 0.00, 0.00, 0.00, 0.000, 0.000, 0.000, 15:21:02.406
0, 0.00, 0.00, 0.00, 0.00, 0.00, 0.00, -24126.52, 0.00, 0.00, 0.00, 0.00, 0.00, 0.00, 0.00, 0.00, 0.00, 0.000, 0.000, 0.000, 15:21:02.406
1, 0.00, 0.00, 0.00, 0.00, 0.00, 0.00, -24567.99, 0.00, 0.00, 0.00, 0.00, 0.00, 0.00, 0.00, 0.00, 0.00, 0.000, 0.000, 0.000, 15:21:02.407
2, 0.00, 0.00, 0.00, 0.00, 0.00, 0.00, -24064.96, 0.00, 0.00, 0.00, 0.00, 0.00, 0.00, 0.00, 0.00, 0.00, 0.000, 0.000, 0.000, 15:21:02.407
3, 0.00, 0.00, 0.00, 0.00, 0.00, 0.00, -24576.28, 0.00, 0.00, 0.00, 0.00, 0.00, 0.00, 0.00, 0.00, 0.00, 0.000, 0.000, 0.000, 15:21:02.407
4, 0.00, 0.00, 0.00, 0.00, 0.00, 0.00, -24029.94, 0.00, 0.00, 0.00, 0.00, 0.00, 0.00, 0.00, 0.00, 0.00, 0.000, 0.000, 0.000, 15:21:02.407
5, 0.00, 0.00, 0.00, 0.00, 0.00, 0.00, -24598.56, 0.00, 0.00, 0.00, 0.00, 0.00, 0.00, 0.00, 0.00, 0.00, 0.000, 0.000, 0.000, 15:21:02.408
6, 0.00, 0.00, 0.00, 0.00, 0.00, 0.00, -23994.31, 0.00, 0.00, 0.00, 0.00, 0.00, 0.00, 0.00, 0.00, 0.00, 0.000, 0.000, 0.000, 15:21:02.408
7, 0.00, 0.00, 0.00, 0.00, 0.00, 0.00, -24581.17, 0.00, 0.00, 0.00, 0.00, 0.00, 0.00, 0.00, 0.00, 0.00, 0.000, 0.000, 0.000, 15:21:02.408
8, 0.00, 0.00, 0.00, 0.00, 0.00, 0.00, -23994.33, 0.00, 0.00, 0.00, 0.00, 0.00, 0.00, 0.00, 0.00, 0.00, 0.000, 0.000, 0.000, 15:21:02.409
9, 0.00, 0.00, 0.00, 0.00, 0.00, 0.00, -24544.58, 0.00, 0.00, 0.00, 0.00, 0.00, 0.00, 0.00, 0.00, 0.00, 0.000, 0.000, 0.000, 15:21:02.409
10, 0.00, 0.00, 0.00, 0.00, 0.00, 0.00, -24000.47, 0.00, 0.00, 0.00, 0.00, 0.00, 0.00, 0.00, 0.00, 0.00, 0.000, 0.000, 0.000, 15:21:02.409
11, 0.00, 0.00, 0.00, 0.00, 0.00, 0.00, -24513.96, 0.00, 0.00, 0.00, 0.00, 0.00, 0.00, 0.00, 0.00, 0.00, 0.000, 0.000, 0.000, 15:21:02.410
12, 0.00, 0.00, 0.00, 0.00, 0.00, 0.00, -24049.20, 0.00, 0.00, 0.00, 0.00, 0.00, 0.00, 0.00, 0.00, 0.00, 0.000, 0.000, 0.000, 15:21:02.410
13, 0.00, 0.00, 0.00, 0.00, 0.00, 0.00, -24468.81, 0.00, 0.00, 0.00, 0.00, 0.00, 0.00, 0.00, 0.00, 0.00, 0.000, 0.000, 0.000, 15:21:02.411
14, 0.00, 0.00, 0.00, 0.00, 0.00, 0.00, -24100.63, 0.00, 0.00, 0.00, 0.00, 0.00, 0.00, 0.00, 0.00, 0.00, 0.000, 0.000, 0.000, 15:21:02.411
15, 0.00, 0.00, 0.00, 0.00, 0.00, 0.00, -24421.04, 0.00, 0.00, 0.00, 0.00, 0.00, 0.00, 0.00, 0.00, 0.00, 0.000, 0.000, 0.000, 15:21:02.411
16, 0.00, 0.00, 0.00, 0.00, 0.00, 0.00, -24195.18, 0.00, 0.00, 0.00, 0.00, 0.00, 0.00, 0.00, 0.00, 0.00, 0.000, 0.000, 0.000, 15:21:02.411
17, 0.00, 0.00, 0.00, 0.00, 0.00, 0.00, -24343.06, 0.00, 0.00, 0.00, 0.00, 0.00, 0.00, 0.00, 0.00, 0.00, 0.000, 0.000, 0.000, 15:21:02.412
18, 0.00, 0.00, 0.00, 0.00, 0.00, 0.00, -24269.43, 0.00, 0.00, 0.00, 0.00, 0.00, 0.00, 0.00, 0.00, 0.00, 0.000, 0.000, 0.000, 15:21:02.412
19, 0.00, 0.00, 0.00, 0.00, 0.00, 0.00, -24307.68, 0.00, 0.00, 0.00, 0.00, 0.00, 0.00, 0.00, 0.00, 0.00, 0.000, 0.000, 0.000, 15:21:02.412
20, 0.00, 0.00, 0.00, 0.00, 0.00, 0.00, -24350.08, 0.00, 0.00, 0.00, 0.00, 0.00, 0.00, 0.00, 0.00, 0.00, 0.000, 0.000, 0.000, 15:21:02.413
21, 0.00, 0.00, 0.00, 0.00, 0.00, 0.00, -24214.29, 0.00, 0.00, 0.00, 0.00, 0.00, 0.00, 0.00, 0.00, 0.00, 0.000, 0.000, 0.000, 15:21:02.413
22, 0.00, 0.00, 0.00, 0.00, 0.00, 0.00, -24417.89, 0.00, 0.00, 0.00, 0.00, 0.00, 0.00, 0.00, 0.00, 0.00, 0.000, 0.000, 0.000, 15:21:02.413
23, 0.00, 0.00, 0.00, 0.00, 0.00, 0.00, -24171.04, 0.00, 0.00, 0.00, 0.00, 0.00, 0.00, 0.00, 0.00, 0.00, 0.000, 0.000, 0.000, 15:21:02.413
24, 0.00, 0.00, 0.00, 0.00, 0.00, 0.00, -24489.69, 0.00, 0.00, 0.00, 0.00, 0.00, 0.00, 0.00, 0.00, 0.00, 0.000, 0.000, 0.000, 15:21:02.414
25, 0.00, 0.00, 0.00, 0.00, 0.00, 0.00, -24112.86, 0.00, 0.00, 0.00, 0.00, 0.00, 0.00, 0.00, 0.00, 0.00, 0.000, 0.000, 0.000, 15:21:02.414
26, 0.00, 0.00, 0.00, 0.00, 0.00, 0.00, -24548.29, 0.00, 0.00, 0.00, 0.00, 0.00, 0.00, 0.00, 0.00, 0.00, 0.000, 0.000, 0.000, 15:21:02.415
27, 0.00, 0.00, 0.00, 0.00, 0.00, 0.00, -24065.50, 0.00, 0.00, 0.00, 0.00, 0.00, 0.00, 0.00, 0.00, 0.00, 0.000, 0.000, 0.000, 15:21:02.415
28, 0.00, 0.00, 0.00, 0.00, 0.00, 0.00, -24588.64, 0.00, 0.00, 0.00, 0.00, 0.00, 0.00, 0.00, 0.00, 0.00, 0.000, 0.000, 0.000, 15:21:02.415
29, 0.00, 0.00, 0.00, 0.00, 0.00, 0.00, -24047.46, 0.00, 0.00, 0.00, 0.00, 0.00, 0.00, 0.00, 0.00, 0.00, 0.000, 0.000, 0.000, 15:21:02.416
30, 0.00, 0.00, 0.00, 0.00, 0.00, 0.00, -24606.48, 0.00, 0.00, 0.00, 0.00, 0.00, 0.00, 0.00, 0.00, 0.00, 0.000, 0.000, 0.000, 15:21:02.416
31, 0.00, 0.00, 0.00, 0.00, 0.00, 0.00, -24022.74, 0.00, 0.00, 0.00, 0.00, 0.00, 0.00, 0.00, 0.00, 0.00, 0.000, 0.000, 0.000, 15:21:02.416
32, 0.00, 0.00, 0.00, 0.00, 0.00, 0.00, -24611.88, 0.00, 0.00, 0.00, 0.00, 0.00, 0.00, 0.00, 0.00, 0.00, 0.000, 0.000, 0.000, 15:21:02.417
33, 0.00, 0.00, 0.00, 0.00, 0.00, 0.00, -24041.56, 0.00, 0.00, 0.00, 0.00, 0.00, 0.00, 0.00, 0.00, 0.00, 0.000, 0.000, 0.000, 15:21:02.417
34, 0.00, 0.00, 0.00, 0.00, 0.00, 0.00, -24608.76, 0.00, 0.00, 0.00, 0.00, 0.00, 0.00, 0.00, 0.00, 0.00, 0.000, 0.000, 0.000, 15:21:02.418
35, 0.00, 0.00, 0.00, 0.00, 0.00, 0.00, -24063.17, 0.00, 0.00, 0.00, 0.00, 0.00, 0.00, 0.00, 0.00, 0.00, 0.000, 0.000, 0.000, 15:21:02.418
36, 0.00, 0.00, 0.00, 0.00, 0.00, 0.00, -24577.82, 0.00, 0.00, 0.00, 0.00, 0.00, 0.00, 0.00, 0.00, 0.00, 0.000, 0.000, 0.000, 15:21:02.418
37, 0.00, 0.00, 0.00, 0.00, 0.00, 0.00, -24118.60, 0.00, 0.00, 0.00, 0.00, 0.00, 0.00, 0.00, 0.00, 0.00, 0.000, 0.000, 0.000, 15:21:02.419
38, 0.00, 0.00, 0.00, 0.00, 0.00, 0.00, -24519.57, 0.00, 0.00, 0.00, 0.00, 0.00, 0.00, 0.00, 0.00, 0.00, 0.000, 0.000, 0.000, 15:21:02.419
39, 0.00, 0.00, 0.00, 0.00, 0.00, 0.00, -24170.39, 0.00, 0.00, 0.00, 0.00, 0.00, 0.00, 0.00, 0.00, 0.00, 0.000, 0.000, 0.000, 15:21:02.419
40, 0.00, 0.00, 0.00, 0.00, 0.00, 0.00, -24456.67, 0.00, 0.00, 0.00, 0.00, 0.00, 0.00, 0.00, 0.00, 0.00, 0.000, 0.000, 0.000, 15:21:02.420
41, 0.00, 0.00, 0.00, 0.00, 0.00, 0.00, -24231.46, 0.00, 0.00, 0.00, 0.00, 0.00, 0.00, 0.00, 0.00, 0.00, 0.000, 0.000, 0.000, 15:21:02.420
42, 0.00, 0.00, 0.00, 0.00, 0.00, 0.00, -24387.88, 0.00, 0.00, 0.00, 0.00, 0.00, 0.00, 0.00, 0.00, 0.00, 0.000, 0.000, 0.000, 15:21:02.420
43, 0.00, 0.00, 0.00, 0.00, 0.00, 0.00, -24318.50, 0.00, 0.00, 0.00, 0.00, 0.00, 0.00, 0.00, 0.00, 0.00, 0.000, 0.000, 0.000, 15:21:02.421
44, 0.00, 0.00, 0.00, 0.00, 0.00, 0.00, -24317.15, 0.00, 0.00, 0.00, 0.00, 0.00, 0.00, 0.00, 0.00, 0.00, 0.000, 0.000, 0.000, 15:21:02.421
45, 0.00, 0.00, 0.00, 0.00, 0.00, 0.00, -24392.03, 0.00, 0.00, 0.00, 0.00, 0.00, 0.00, 0.00, 0.00, 0.00, 0.000, 0.000, 0.000, 15:21:02.421
46, 0.00, 0.00, 0.00, 0.00, 0.00, 0.00, -24244.29, 0.00, 0.00, 0.00, 0.00, 0.00, 0.00, 0.00, 0.00, 0.00, 0.000, 0.000, 0.000, 15:21:02.422
47, 0.00, 0.00, 0.00, 0.00, 0.00, 0.00, -24474.73, 0.00, 0.00, 0.00, 0.00, 0.00, 0.00, 0.00, 0.00, 0.00, 0.000, 0.000, 0.000, 15:21:02.422
48, 0.00, 0.00, 0.00, 0.00, 0.00, 0.00, -24173.37, 0.00, 0.00, 0.00, 0.00, 0.00, 0.00, 0.00, 0.00, 0.00, 0.000, 0.000, 0.000, 15:21:02.423
49, 0.00, 0.00, 0.00, 0.00, 0.00, 0.00, -24519.10, 0.00, 0.00, 0.00, 0.00, 0.00, 0.00, 0.00, 0.00, 0.00, 0.000, 0.000, 0.000, 15:21:02.423
50, 0.00, 0.00, 0.00, 0.00, 0.00, 0.00, -24124.15, 0.00, 0.00, 0.00, 0.00, 0.00, 0.00, 0.00, 0.00, 0.00, 0.000, 0.000, 0.000, 15:21:02.423
51, 0.00, 0.00, 0.00, 0.00, 0.00, 0.00, -24568.19, 0.00, 0.00, 0.00, 0.00, 0.00, 0.00, 0.00, 0.00, 0.00, 0.000, 0.000, 0.000, 15:21:02.424
52, 0.00, 0.00, 0.00, 0.00, 0.00, 0.00, -24100.54, 0.00, 0.00, 0.00, 0.00, 0.00, 0.00, 0.00, 0.00, 0.00, 0.000, 0.000, 0.000, 15:21:02.424
53, 0.00, 0.00, 0.00, 0.00, 0.00, 0.00, -24605.13, 0.00, 0.00, 0.00, 0.00, 0.00, 0.00, 0.00, 0.00, 0.00, 0.000, 0.000, 0.000, 15:21:02.886
54, 0.00, 0.00, 0.00, 0.00, 0.00, 0.00, -24064.96, 0.00, 0.00, 0.00, 0.00, 0.00, 0.00, 0.00, 0.00, 0.00, 0.000, 0.000, 0.000, 15:21:02.886
55, 0.00, 0.00, 0.00, 0.00, 0.00, 0.00, -24620.76, 0.00, 0.00, 0.00, 0.00, 0.00, 0.00, 0.00, 0.00, 0.00, 0.000, 0.000, 0.000, 15:21:02.887
56, 0.00, 0.00, 0.00, 0.00, 0.00, 0.00, -24037.89, 0.00, 0.00, 0.00, 0.00, 0.00, 0.00, 0.00, 0.00, 0.00, 0.000, 0.000, 0.000, 15:21:02.887
57, 0.00, 0.00, 0.00, 0.00, 0.00, 0.00, -24628.07, 0.00, 0.00, 0.00, 0.00, 0.00, 0.00, 0.00, 0.00, 0.00, 0.000, 0.000, 0.000, 15:21:02.887
58, 0.00, 0.00, 0.00, 0.00, 0.00, 0.00, -24052.29, 0.00, 0.00, 0.00, 0.00, 0.00, 0.00, 0.00, 0.00, 0.00, 0.000, 0.000, 0.000, 15:21:02.887
59, 0.00, 0.00, 0.00, 0.00, 0.00, 0.00, -24586.58, 0.00, 0.00, 0.00, 0.00, 0.00, 0.00, 0.00, 0.00, 0.00, 0.000, 0.000, 0.000, 15:21:02.887
60, 0.00, 0.00, 0.00, 0.00, 0.00, 0.00, -24073.70, 0.00, 0.00, 0.00, 0.00, 0.00, 0.00, 0.00, 0.00, 0.00, 0.000, 0.000, 0.000, 15:21:02.887
61, 0.00, 0.00, 0.00, 0.00, 0.00, 0.00, -24558.98, 0.00, 0.00, 0.00, 0.00, 0.00, 0.00, 0.00, 0.00, 0.00, 0.000, 0.000, 0.000, 15:21:02.888
62, 0.00, 0.00, 0.00, 0.00, 0.00, 0.00, -24126.25, 0.00, 0.00, 0.00, 0.00, 0.00, 0.00, 0.00, 0.00, 0.00, 0.000, 0.000, 0.000, 15:21:02.888
63, 0.00, 0.00, 0.00, 0.00, 0.00, 0.00, -24508.51, 0.00, 0.00, 0.00, 0.00, 0.00, 0.00, 0.00, 0.00, 0.00, 0.000, 0.000, 0.000, 15:21:02.888
64, 0.00, 0.00, 0.00, 0.00, 0.00, 0.00, -24186.11, 0.00, 0.00, 0.00, 0.00, 0.00, 0.00, 0.00, 0.00, 0.00, 0.000, 0.000, 0.000, 15:21:02.888
65, 0.00, 0.00, 0.00, 0.00, 0.00, 0.00, -24454.37, 0.00, 0.00, 0.00, 0.00, 0.00, 0.00, 0.00, 0.00, 0.00, 0.000, 0.000, 0.000, 15:21:02.889
66, 0.00, 0.00, 0.00, 0.00, 0.00, 0.00, -24257.48, 0.00, 0.00, 0.00, 0.00, 0.00, 0.00, 0.00, 0.00, 0.00, 0.000, 0.000, 0.000, 15:21:02.889
67, 0.00, 0.00, 0.00, 0.00, 0.00, 0.00, -24374.49, 0.00, 0.00, 0.00, 0.00, 0.00, 0.00, 0.00, 0.00, 0.00, 0.000, 0.000, 0.000, 15:21:02.889
68, 0.00, 0.00, 0.00, 0.00, 0.00, 0.00, -24333.03, 0.00, 0.00, 0.00, 0.00, 0.00, 0.00, 0.00, 0.00, 0.00, 0.000, 0.000, 0.000, 15:21:02.889
69, 0.00, 0.00, 0.00, 0.00, 0.00, 0.00, -24313.18, 0.00, 0.00, 0.00, 0.00, 0.00, 0.00, 0.00, 0.00, 0.00, 0.000, 0.000, 0.000, 15:21:02.890
70, 0.00, 0.00, 0.00, 0.00, 0.00, 0.00, -24414.32, 0.00, 0.00, 0.00, 0.00, 0.00, 0.00, 0.00, 0.00, 0.00, 0.000, 0.000, 0.000, 15:21:02.890
71, 0.00, 0.00, 0.00, 0.00, 0.00, 0.00, -24247.95, 0.00, 0.00, 0.00, 0.00, 0.00, 0.00, 0.00, 0.00, 0.00, 0.000, 0.000, 0.000, 15:21:02.890
72, 0.00, 0.00, 0.00, 0.00, 0.00, 0.00, -24491.86, 0.00, 0.00, 0.00, 0.00, 0.00, 0.00, 0.00, 0.00, 0.00, 0.000, 0.000, 0.000, 15:21:02.890
73, 0.00, 0.00, 0.00, 0.00, 0.00, 0.00, -24187.13, 0.00, 0.00, 0.00, 0.00, 0.00, 0.00, 0.00, 0.00, 0.00, 0.000, 0.000, 0.000, 15:21:02.890
74, 0.00, 0.00, 0.00, 0.00, 0.00, 0.00, -24548.27, 0.00, 0.00, 0.00, 0.00, 0.00, 0.00, 0.00, 0.00, 0.00, 0.000, 0.000, 0.000, 15:21:02.891
75, 0.00, 0.00, 0.00, 0.00, 0.00, 0.00, -24152.51, 0.00, 0.00, 0.00, 0.00, 0.00, 0.00, 0.00, 0.00, 0.00, 0.000, 0.000, 0.000, 15:21:02.891
76, 0.00, 0.00, 0.00, 0.00, 0.00, 0.00, -24601.63, 0.00, 0.00, 0.00, 0.00, 0.00, 0.00, 0.00, 0.00, 0.00, 0.000, 0.000, 0.000, 15:21:02.891
77, 0.00, 0.00, 0.00, 0.00, 0.00, 0.00, -24100.90, 0.00, 0.00, 0.00, 0.00, 0.00, 0.00, 0.00, 0.00, 0.00, 0.000, 0.000, 0.000, 15:21:02.891
78, 0.00, 0.00, 0.00, 0.00, 0.00, 0.00, -24621.56, 0.00, 0.00, 0.00, 0.00, 0.00, 0.00, 0.00, 0.00, 0.00, 0.000, 0.000, 0.000, 15:21:02.892
79, 0.00, 0.00, 0.00, 0.00, 0.00, 0.00, -24083.78, 0.00, 0.00, 0.00, 0.00, 0.00, 0.00, 0.00, 0.00, 0.00, 0.000, 0.000, 0.000, 15:21:02.892
80, 0.00, 0.00, 0.00, 0.00, 0.00, 0.00, -24648.38, 0.00, 0.00, 0.00, 0.00, 0.00, 0.00, 0.00, 0.00, 0.00, 0.000, 0.000, 0.000, 15:21:02.892
81, 0.00, 0.00, 0.00, 0.00, 0.00, 0.00, -24081.17, 0.00, 0.00, 0.00, 0.00, 0.00, 0.00, 0.00, 0.00, 0.00, 0.000, 0.000, 0.000, 15:21:02.892
82, 0.00, 0.00, 0.00, 0.00, 0.00, 0.00, -24628.31, 0.00, 0.00, 0.00, 0.00, 0.00, 0.00, 0.00, 0.00, 0.00, 0.000, 0.000, 0.000, 15:21:02.893
83, 0.00, 0.00, 0.00, 0.00, 0.00, 0.00, -24069.54, 0.00, 0.00, 0.00, 0.00, 0.00, 0.00, 0.00, 0.00, 0.00, 0.000, 0.000, 0.000, 15:21:02.893
84, 0.00, 0.00, 0.00, 0.00, 0.00, 0.00, -24604.13, 0.00, 0.00, 0.00, 0.00, 0.00, 0.00, 0.00, 0.00, 0.00, 0.000, 0.000, 0.000, 15:21:02.907
85, 0.00, 0.00, 0.00, 0.00, 0.00, 0.00, -24096.81, 0.00, 0.00, 0.00, 0.00, 0.00, 0.00, 0.00, 0.00, 0.00, 0.000, 0.000, 0.000, 15:21:02.909
86, 0.00, 0.00, 0.00, 0.00, 0.00, 0.00, -24575.07, 0.00, 0.00, 0.00, 0.00, 0.00, 0.00, 0.00, 0.00, 0.00, 0.000, 0.000, 0.000, 15:21:02.910
87, 0.00, 0.00, 0.00, 0.00, 0.00, 0.00, -24137.96, 0.00, 0.00, 0.00, 0.00, 0.00, 0.00, 0.00, 0.00, 0.00, 0.000, 0.000, 0.000, 15:21:02.910
88, 0.00, 0.00, 0.00, 0.00, 0.00, 0.00, -24525.27, 0.00, 0.00, 0.00, 0.00, 0.00, 0.00, 0.00, 0.00, 0.00, 0.000, 0.000, 0.000, 15:21:02.910
89, 0.00, 0.00, 0.00, 0.00, 0.00, 0.00, -24215.99, 0.00, 0.00, 0.00, 0.00, 0.00, 0.00, 0.00, 0.00, 0.00, 0.000, 0.000, 0.000, 15:21:02.910
90, 0.00, 0.00, 0.00, 0.00, 0.00, 0.00, -24446.95, 0.00, 0.00, 0.00, 0.00, 0.00, 0.00, 0.00, 0.00, 0.00, 0.000, 0.000, 0.000, 15:21:02.910
91, 0.00, 0.00, 0.00, 0.00, 0.00, 0.00, -24295.34, 0.00, 0.00, 0.00, 0.00, 0.00, 0.00, 0.00, 0.00, 0.00, 0.000, 0.000, 0.000, 15:21:02.911
92, 0.00, 0.00, 0.00, 0.00, 0.00, 0.00, -24381.37, 0.00, 0.00, 0.00, 0.00, 0.00, 0.00, 0.00, 0.00, 0.00, 0.000, 0.000, 0.000, 15:21:02.911
93, 0.00, 0.00, 0.00, 0.00, 0.00, 0.00, -24358.82, 0.00, 0.00, 0.00, 0.00, 0.00, 0.00, 0.00, 0.00, 0.00, 0.000, 0.000, 0.000, 15:21:02.911
94, 0.00, 0.00, 0.00, 0.00, 0.00, 0.00, -24298.98, 0.00, 0.00, 0.00, 0.00, 0.00, 0.00, 0.00, 0.00, 0.00, 0.000, 0.000, 0.000, 15:21:02.911
95, 0.00, 0.00, 0.00, 0.00, 0.00, 0.00, -24405.09, 0.00, 0.00, 0.00, 0.00, 0.00, 0.00, 0.00, 0.00, 0.00, 0.000, 0.000, 0.000, 15:21:02.911
96, 0.00, 0.00, 0.00, 0.00, 0.00, 0.00, -24244.00, 0.00, 0.00, 0.00, 0.00, 0.00, 0.00, 0.00, 0.00, 0.00, 0.000, 0.000, 0.000, 15:21:02.912
97, 0.00, 0.00, 0.00, 0.00, 0.00, 0.00, -24501.47, 0.00, 0.00, 0.00, 0.00, 0.00, 0.00, 0.00, 0.00, 0.00, 0.000, 0.000, 0.000, 15:21:02.912
98, 0.00, 0.00, 0.00, 0.00, 0.00, 0.00, -24220.15, 0.00, 0.00, 0.00, 0.00, 0.00, 0.00, 0.00, 0.00, 0.00, 0.000, 0.000, 0.000, 15:21:02.912
99, 0.00, 0.00, 0.00, 0.00, 0.00, 0.00, -24575.54, 0.00, 0.00, 0.00, 0.00, 0.00, 0.00, 0.00, 0.00, 0.00, 0.000, 0.000, 0.000, 15:21:02.915
100, 0.00, 0.00, 0.00, 0.00, 0.00, 0.00, -24165.43, 0.00, 0.00, 0.00, 0.00, 0.00, 0.00, 0.00, 0.00, 0.00, 0.000, 0.000, 0.000, 15:21:02.915
101, 0.00, 0.00, 0.00, 0.00, 0.00, 0.00, -24599.10, 0.00, 0.00, 0.00, 0.00, 0.00, 0.00, 0.00, 0.00, 0.00, 0.000, 0.000, 0.000, 15:21:02.915
102, 0.00, 0.00, 0.00, 0.00, 0.00, 0.00, -24105.08, 0.00, 0.00, 0.00, 0.00, 0.00, 0.00, 0.00, 0.00, 0.00, 0.000, 0.000, 0.000, 15:21:02.915
103, 0.00, 0.00, 0.00, 0.00, 0.00, 0.00, -24625.45, 0.00, 0.00, 0.00, 0.00, 0.00, 0.00, 0.00, 0.00, 0.00, 0.000, 0.000, 0.000, 15:21:02.916
104, 0.00, 0.00, 0.00, 0.00, 0.00, 0.00, -24096.10, 0.00, 0.00, 0.00, 0.00, 0.00, 0.00, 0.00, 0.00, 0.00, 0.000, 0.000, 0.000, 15:21:02.916
105, 0.00, 0.00, 0.00, 0.00, 0.00, 0.00, -24630.08, 0.00, 0.00, 0.00, 0.00, 0.00, 0.00, 0.00, 0.00, 0.00, 0.000, 0.000, 0.000, 15:21:02.916
106, 0.00, 0.00, 0.00, 0.00, 0.00, 0.00, -24093.55, 0.00, 0.00, 0.00, 0.00, 0.00, 0.00, 0.00, 0.00, 0.00, 0.000, 0.000, 0.000, 15:21:02.916
107, 0.00, 0.00, 0.00, 0.00, 0.00, 0.00, -24629.07, 0.00, 0.00, 0.00, 0.00, 0.00, 0.00, 0.00, 0.00, 0.00, 0.000, 0.000, 0.000, 15:21:02.917
108, 0.00, 0.00, 0.00, 0.00, 0.00, 0.00, -24107.50, 0.00, 0.00, 0.00, 0.00, 0.00, 0.00, 0.00, 0.00, 0.00, 0.000, 0.000, 0.000, 15:21:02.917
109, 0.00, 0.00, 0.00, 0.00, 0.00, 0.00, -24594.90, 0.00, 0.00, 0.00, 0.00, 0.00, 0.00, 0.00, 0.00, 0.00, 0.000, 0.000, 0.000, 15:21:02.918
110, 0.00, 0.00, 0.00, 0.00, 0.00, 0.00, -24131.72, 0.00, 0.00, 0.00, 0.00, 0.00, 0.00, 0.00, 0.00, 0.00, 0.000, 0.000, 0.000, 15:21:02.918
111, 0.00, 0.00, 0.00, 0.00, 0.00, 0.00, -24560.34, 0.00, 0.00, 0.00, 0.00, 0.00, 0.00, 0.00, 0.00, 0.00, 0.000, 0.000, 0.000, 15:21:02.918
112, 0.00, 0.00, 0.00, 0.00, 0.00, 0.00, -24196.79, 0.00, 0.00, 0.00, 0.00, 0.00, 0.00, 0.00, 0.00, 0.00, 0.000, 0.000, 0.000, 15:21:02.919
113, 0.00, 0.00, 0.00, 0.00, 0.00, 0.00, -24506.77, 0.00, 0.00, 0.00, 0.00, 0.00, 0.00, 0.00, 0.00, 0.00, 0.000, 0.000, 0.000, 15:21:03.366
114, 0.00, 0.00, 0.00, 0.00, 0.00, 0.00, -24248.09, 0.00, 0.00, 0.00, 0.00, 0.00, 0.00, 0.00, 0.00, 0.00, 0.000, 0.000, 0.000, 15:21:03.366
115, 0.00, 0.00, 0.00, 0.00, 0.00, 0.00, -24442.91, 0.00, 0.00, 0.00, 0.00, 0.00, 0.00, 0.00, 0.00, 0.00, 0.000, 0.000, 0.000, 15:21:03.366
116, 0.00, 0.00, 0.00, 0.00, 0.00, 0.00, -24300.84, 0.00, 0.00, 0.00, 0.00, 0.00, 0.00, 0.00, 0.00, 0.00, 0.000, 0.000, 0.000, 15:21:03.366
117, 0.00, 0.00, 0.00, 0.00, 0.00, 0.00, -24368.12, 0.00, 0.00, 0.00, 0.00, 0.00, 0.00, 0.00, 0.00, 0.00, 0.000, 0.000, 0.000, 15:21:03.367
118, 0.00, 0.00, 0.00, 0.00, 0.00, 0.00, -24373.06, 0.00, 0.00, 0.00, 0.00, 0.00, 0.00, 0.00, 0.00, 0.00, 0.000, 0.000, 0.000, 15:21:03.367
119, 0.00, 0.00, 0.00, 0.00, 0.00, 0.00, -24301.89, 0.00, 0.00, 0.00, 0.00, 0.00, 0.00, 0.00, 0.00, 0.00, 0.000, 0.000, 0.000, 15:21:03.367
120, 0.00, 0.00, 0.00, 0.00, 0.00, 0.00, -24411.03, 0.00, 0.00, 0.00, 0.00, 0.00, 0.00, 0.00, 0.00, 0.00, 0.000, 0.000, 0.000, 15:21:03.367
121, 0.00, 0.00, 0.00, 0.00, 0.00, 0.00, -24220.73, 0.00, 0.00, 0.00, 0.00, 0.00, 0.00, 0.00, 0.00, 0.00, 0.000, 0.000, 0.000, 15:21:03.368
122, 0.00, 0.00, 0.00, 0.00, 0.00, 0.00, -24467.20, 0.00, 0.00, 0.00, 0.00, 0.00, 0.00, 0.00, 0.00, 0.00, 0.000, 0.000, 0.000, 15:21:03.368
123, 0.00, 0.00, 0.00, 0.00, 0.00, 0.00, -24154.17, 0.00, 0.00, 0.00, 0.00, 0.00, 0.00, 0.00, 0.00, 0.00, 0.000, 0.000, 0.000, 15:21:03.368
124, 0.00, 0.00, 0.00, 0.00, 0.00, 0.00, -24508.04, 0.00, 0.00, 0.00, 0.00, 0.00, 0.00, 0.00, 0.00, 0.00, 0.000, 0.000, 0.000, 15:21:03.368
125, 0.00, 0.00, 0.00, 0.00, 0.00, 0.00, -24094.84, 0.00, 0.00, 0.00, 0.00, 0.00, 0.00, 0.00, 0.00, 0.00, 0.000, 0.000, 0.000, 15:21:03.369
126, 0.00, 0.00, 0.00, 0.00, 0.00, 0.00, -24522.79, 0.00, 0.00, 0.00, 0.00, 0.00, 0.00, 0.00, 0.00, 0.00, 0.000, 0.000, 0.000, 15:21:03.369
127, 0.00, 0.00, 0.00, 0.00, 0.00, 0.00, -24079.33, 0.00, 0.00, 0.00, 0.00, 0.00, 0.00, 0.00, 0.00, 0.00, 0.000, 0.000, 0.000, 15:21:03.369
0, 0.00, 0.00, 0.00, 0.00, 0.00, 0.00, -24568.57, 0.00, 0.00, 0.00, 0.00, 0.00, 0.00, 0.00, 0.00, 0.00, 0.000, 0.000, 0.000, 15:21:03.370
1, 0.00, 0.00, 0.00, 0.00, 0.00, 0.00, -24041.16, 0.00, 0.00, 0.00, 0.00, 0.00, 0.00, 0.00, 0.00, 0.00, 0.000, 0.000, 0.000, 15:21:03.371
2, 0.00, 0.00, 0.00, 0.00, 0.00, 0.00, -24573.93, 0.00, 0.00, 0.00, 0.00, 0.00, 0.00, 0.00, 0.00, 0.00, 0.000, 0.000, 0.000, 15:21:03.372
3, 0.00, 0.00, 0.00, 0.00, 0.00, 0.00, -24037.69, 0.00, 0.00, 0.00, 0.00, 0.00, 0.00, 0.00, 0.00, 0.00, 0.000, 0.000, 0.000, 15:21:03.372
4, 0.00, 0.00, 0.00, 0.00, 0.00, 0.00, -24562.98, 0.00, 0.00, 0.00, 0.00, 0.00, 0.00, 0.00, 0.00, 0.00, 0.000, 0.000, 0.000, 15:21:03.372
5, 0.00, 0.00, 0.00, 0.00, 0.00, 0.00, -24067.02, 0.00, 0.00, 0.00, 0.00, 0.00, 0.00, 0.00, 0.00, 0.00, 0.000, 0.000, 0.000, 15:21:03.372
6, 0.00, 0.00, 0.00, 0.00, 0.00, 0.00, -24544.74, 0.00, 0.00, 0.00, 0.00, 0.00, 0.00, 0.00, 0.00, 0.00, 0.000, 0.000, 0.000, 15:21:03.373
7, 0.00, 0.00, 0.00, 0.00, 0.00, 0.00, -24107.58, 0.00, 0.00, 0.00, 0.00, 0.00, 0.00, 0.00, 0.00, 0.00, 0.000, 0.000, 0.000, 15:21:03.373
8, 0.00, 0.00, 0.00, 0.00, 0.00, 0.00, -24510.36, 0.00, 0.00, 0.00, 0.00, 0.00, 0.00, 0.00, 0.00, 0.00, 0.000, 0.000, 0.000, 15:21:03.373
9, 0.00, 0.00, 0.00, 0.00, 0.00, 0.00, -24145.81, 0.00, 0.00, 0.00, 0.00, 0.00, 0.00, 0.00, 0.00, 0.00, 0.000, 0.000, 0.000, 15:21:03.373
10, 0.00, 0.00, 0.00, 0.00, 0.00, 0.00, -24453.46, 0.00, 0.00, 0.00, 0.00, 0.00, 0.00, 0.00, 0.00, 0.00, 0.000, 0.000, 0.000, 15:21:03.373
11, 0.00, 0.00, 0.00, 0.00, 0.00, 0.00, -24202.87, 0.00, 0.00, 0.00, 0.00, 0.00, 0.00, 0.00, 0.00, 0.00, 0.000, 0.000, 0.000, 15:21:03.374
12, 0.00, 0.00, 0.00, 0.00, 0.00, 0.00, -24386.96, 0.00, 0.00, 0.00, 0.00, 0.00, 0.00, 0.00, 0.00, 0.00, 0.000, 0.000, 0.000, 15:21:03.374
13, 0.00, 0.00, 0.00, 0.00, 0.00, 0.00, -24266.69, 0.00, 0.00, 0.00, 0.00, 0.00, 0.00, 0.00, 0.00, 0.00, 0.000, 0.000, 0.000, 15:21:03.374
14, 0.00, 0.00, 0.00, 0.00, 0.00, 0.00, -24303.41, 0.00, 0.00, 0.00, 0.00, 0.00, 0.00, 0.00, 0.00, 0.00, 0.000, 0.000, 0.000, 15:21:03.375
15, 0.00, 0.00, 0.00, 0.00, 0.00, 0.00, -24328.53, 0.00, 0.00, 0.00, 0.00, 0.00, 0.00, 0.00, 0.00, 0.00, 0.000, 0.000, 0.000, 15:21:03.376
16, 0.00, 0.00, 0.00, 0.00, 0.00, 0.00, -24253.14, 0.00, 0.00, 0.00, 0.00, 0.00, 0.00, 0.00, 0.00, 0.00, 0.000, 0.000, 0.000, 15:21:03.377
17, 0.00, 0.00, 0.00, 0.00, 0.00, 0.00, -24407.54, 0.00, 0.00, 0.00, 0.00, 0.00, 0.00, 0.00, 0.00, 0.00, 0.000, 0.000, 0.000, 15:21:03.377
18, 0.00, 0.00, 0.00, 0.00, 0.00, 0.00, -24182.82, 0.00, 0.00, 0.00, 0.00, 0.00, 0.00, 0.00, 0.00, 0.00, 0.000, 0.000, 0.000, 15:21:03.378
19, 0.00, 0.00, 0.00, 0.00, 0.00, 0.00, -24479.29, 0.00, 0.00, 0.00, 0.00, 0.00, 0.00, 0.00, 0.00, 0.00, 0.000, 0.000, 0.000, 15:21:03.378
20, 0.00, 0.00, 0.00, 0.00, 0.00, 0.00, -24134.63, 0.00, 0.00, 0.00, 0.00, 0.00, 0.00, 0.00, 0.00, 0.00, 0.000, 0.000, 0.000, 15:21:03.378
21, 0.00, 0.00, 0.00, 0.00, 0.00, 0.00, -24527.84, 0.00, 0.00, 0.00, 0.00, 0.00, 0.00, 0.00, 0.00, 0.00, 0.000, 0.000, 0.000, 15:21:03.378
22, 0.00, 0.00, 0.00, 0.00, 0.00, 0.00, -24090.49, 0.00, 0.00, 0.00, 0.00, 0.00, 0.00, 0.00, 0.00, 0.00, 0.000, 0.000, 0.000, 15:21:03.379
23, 0.00, 0.00, 0.00, 0.00, 0.00, 0.00, -24555.89, 0.00, 0.00, 0.00, 0.00, 0.00, 0.00, 0.00, 0.00, 0.00, 0.000, 0.000, 0.000, 15:21:03.379
24, 0.00, 0.00, 0.00, 0.00, 0.00, 0.00, -24047.39, 0.00, 0.00, 0.00, 0.00, 0.00, 0.00, 0.00, 0.00, 0.00, 0.000, 0.000, 0.000, 15:21:03.379
25, 0.00, 0.00, 0.00, 0.00, 0.00, 0.00, -24598.09, 0.00, 0.00, 0.00, 0.00, 0.00, 0.00, 0.00, 0.00, 0.00, 0.000, 0.000, 0.000, 15:21:03.379
26, 0.00, 0.00, 0.00, 0.00, 0.00, 0.00, -24030.94, 0.00, 0.00, 0.00, 0.00, 0.00, 0.00, 0.00, 0.00, 0.00, 0.000, 0.000, 0.000, 15:21:03.380
27, 0.00, 0.00, 0.00, 0.00, 0.00, 0.00, -24604.20, 0.00, 0.00, 0.00, 0.00, 0.00, 0.00, 0.00, 0.00, 0.00, 0.000, 0.000, 0.000, 15:21:03.380
28, 0.00, 0.00, 0.00, 0.00, 0.00, 0.00, -24027.43, 0.00, 0.00, 0.00, 0.00, 0.00, 0.00, 0.00, 0.00, 0.00, 0.000, 0.000, 0.000, 15:21:03.380
29, 0.00, 0.00, 0.00, 0.00, 0.00, 0.00, -24577.60, 0.00, 0.00, 0.00, 0.00, 0.00, 0.00, 0.00, 0.00, 0.00, 0.000, 0.000, 0.000, 15:21:03.380
30, 0.00, 0.00, 0.00, 0.00, 0.00, 0.00, -24052.06, 0.00, 0.00, 0.00, 0.00, 0.00, 0.00, 0.00, 0.00, 0.00, 0.000, 0.000, 0.000, 15:21:03.380
31, 0.00, 0.00, 0.00, 0.00, 0.00, 0.00, -24536.98, 0.00, 0.00, 0.00, 0.00, 0.00, 0.00, 0.00, 0.00, 0.00, 0.000, 0.000, 0.000, 15:21:03.381
32, 0.00, 0.00, 0.00, 0.00, 0.00, 0.00, -24091.69, 0.00, 0.00, 0.00, 0.00, 0.00, 0.00, 0.00, 0.00, 0.00, 0.000, 0.000, 0.000, 15:21:03.382
33, 0.00, 0.00, 0.00, 0.00, 0.00, 0.00, -24482.65, 0.00, 0.00, 0.00, 0.00, 0.00, 0.00, 0.00, 0.00, 0.00, 0.000, 0.000, 0.000, 15:21:03.382
34, 0.00, 0.00, 0.00, 0.00, 0.00, 0.00, -24144.04, 0.00, 0.00, 0.00, 0.00, 0.00, 0.00, 0.00, 0.00, 0.00, 0.000, 0.000, 0.000, 15:21:03.382
35, 0.00, 0.00, 0.00, 0.00, 0.00, 0.00, -24433.85, 0.00, 0.00, 0.00, 0.00, 0.00, 0.00, 0.00, 0.00, 0.00, 0.000, 0.000, 0.000, 15:21:03.383
36, 0.00, 0.00, 0.00, 0.00, 0.00, 0.00, -24213.49, 0.00, 0.00, 0.00, 0.00, 0.00, 0.00, 0.00, 0.00, 0.00, 0.000, 0.000, 0.000, 15:21:03.383
37, 0.00, 0.00, 0.00, 0.00, 0.00, 0.00, -24367.33, 0.00, 0.00, 0.00, 0.00, 0.00, 0.00, 0.00, 0.00, 0.00, 0.000, 0.000, 0.000, 15:21:03.383
38, 0.00, 0.00, 0.00, 0.00, 0.00, 0.00, -24285.21, 0.00, 0.00, 0.00, 0.00, 0.00, 0.00, 0.00, 0.00, 0.00, 0.000, 0.000, 0.000, 15:21:03.383
39, 0.00, 0.00, 0.00, 0.00, 0.00, 0.00, -24295.83, 0.00, 0.00, 0.00, 0.00, 0.00, 0.00, 0.00, 0.00, 0.00, 0.000, 0.000, 0.000, 15:21:03.384
40, 0.00, 0.00, 0.00, 0.00, 0.00, 0.00, -24344.13, 0.00, 0.00, 0.00, 0.00, 0.00, 0.00, 0.00, 0.00, 0.00, 0.000, 0.000, 0.000, 15:21:03.384
41, 0.00, 0.00, 0.00, 0.00, 0.00, 0.00, -24228.31, 0.00, 0.00, 0.00, 0.00, 0.00, 0.00, 0.00, 0.00, 0.00, 0.000, 0.000, 0.000, 15:21:03.384
42, 0.00, 0.00, 0.00, 0.00, 0.00, 0.00, -24428.58, 0.00, 0.00, 0.00, 0.00, 0.00, 0.00, 0.00, 0.00, 0.00, 0.000, 0.000, 0.000, 15:21:03.384
43, 0.00, 0.00, 0.00, 0.00, 0.00, 0.00, -24185.37, 0.00, 0.00, 0.00, 0.00, 0.00, 0.00, 0.00, 0.00, 0.00, 0.000, 0.000, 0.000, 15:21:03.385
44, 0.00, 0.00, 0.00, 0.00, 0.00, 0.00, -24492.15, 0.00, 0.00, 0.00, 0.00, 0.00, 0.00, 0.00, 0.00, 0.00, 0.000, 0.000, 0.000, 15:21:03.385
45, 0.00, 0.00, 0.00, 0.00, 0.00, 0.00, -24121.02, 0.00, 0.00, 0.00, 0.00, 0.00, 0.00, 0.00, 0.00, 0.00, 0.000, 0.000, 0.000, 15:21:03.385
46, 0.00, 0.00, 0.00, 0.00, 0.00, 0.00, -24553.75, 0.00, 0.00, 0.00, 0.00, 0.00, 0.00, 0.00, 0.00, 0.00, 0.000, 0.000, 0.000, 15:21:03.846
47, 0.00, 0.00, 0.00, 0.00, 0.00, 0.00, -24065.47, 0.00, 0.00, 0.00, 0.00, 0.00, 0.00, 0.00, 0.00, 0.00, 0.000, 0.000, 0.000, 15:21:03.846
48, 0.00, 0.00, 0.00, 0.00, 0.00, 0.00, -24571.56, 0.00, 0.00, 0.00, 0.00, 0.00, 0.00, 0.00, 0.00, 0.00, 0.000, 0.000, 0.000, 15:21:03.846
49, 0.00, 0.00, 0.00, 0.00, 0.00, 0.00, -24045.87, 0.00, 0.00, 0.00, 0.00, 0.00, 0.00, 0.00, 0.00, 0.00, 0.000, 0.000, 0.000, 15:21:03.846
50, 0.00, 0.00, 0.00, 0.00, 0.00, 0.00, -24575.79, 0.00, 0.00, 0.00, 0.00, 0.00, 0.00, 0.00, 0.00, 0.00, 0.000, 0.000, 0.000, 15:21:03.846
51, 0.00, 0.00, 0.00, 0.00, 0.00, 0.00, -24015.63, 0.00, 0.00, 0.00, 0.00, 0.00, 0.00, 0.00, 0.00, 0.00, 0.000, 0.000, 0.000, 15:21:03.847
52, 0.00, 0.00, 0.00, 0.00, 0.00, 0.00, -24579.70, 0.00, 0.00, 0.00, 0.00, 0.00, 0.00, 0.00, 0.00, 0.00, 0.000, 0.000, 0.000, 15:21:03.847
53, 0.00, 0.00, 0.00, 0.00, 0.00, 0.00, -24023.10, 0.00, 0.00, 0.00, 0.00, 0.00, 0.00, 0.00, 0.00, 0.00, 0.000, 0.000, 0.000, 15:21:03.847
54, 0.00, 0.00, 0.00, 0.00, 0.00, 0.00, -24575.09, 0.00, 0.00, 0.00, 0.00, 0.00, 0.00, 0.00, 0.00, 0.00, 0.000, 0.000, 0.000, 15:21:03.847
55, 0.00, 0.00, 0.00, 0.00, 0.00, 0.00, -24055.37, 0.00, 0.00, 0.00, 0.00, 0.00, 0.00, 0.00, 0.00, 0.00, 0.000, 0.000, 0.000, 15:21:03.847
56, 0.00, 0.00, 0.00, 0.00, 0.00, 0.00, -24535.35, 0.00, 0.00, 0.00, 0.00, 0.00, 0.00, 0.00, 0.00, 0.00, 0.000, 0.000, 0.000, 15:21:03.847
57, 0.00, 0.00, 0.00, 0.00, 0.00, 0.00, -24095.25, 0.00, 0.00, 0.00, 0.00, 0.00, 0.00, 0.00, 0.00, 0.00, 0.000, 0.000, 0.000, 15:21:03.847
58, 0.00, 0.00, 0.00, 0.00, 0.00, 0.00, -24487.65, 0.00, 0.00, 0.00, 0.00, 0.00, 0.00, 0.00, 0.00, 0.00, 0.000, 0.000, 0.000, 15:21:03.848
59, 0.00, 0.00, 0.00, 0.00, 0.00, 0.00, -24154.93, 0.00, 0.00, 0.00, 0.00, 0.00, 0.00, 0.00, 0.00, 0.00, 0.000, 0.000, 0.000, 15:21:03.848
60, 0.00, 0.00, 0.00, 0.00, 0.00, 0.00, -24422.05, 0.00, 0.00, 0.00, 0.00, 0.00, 0.00, 0.00, 0.00, 0.00, 0.000, 0.000, 0.000, 15:21:03.848
61, 0.00, 0.00, 0.00, 0.00, 0.00, 0.00, -24220.10, 0.00, 0.00, 0.00, 0.00, 0.00, 0.00, 0.00, 0.00, 0.00, 0.000, 0.000, 0.000, 15:21:03.848
62, 0.00, 0.00, 0.00, 0.00, 0.00, 0.00, -24362.39, 0.00, 0.00, 0.00, 0.00, 0.00, 0.00, 0.00, 0.00, 0.00, 0.000, 0.000, 0.000, 15:21:03.848
63, 0.00, 0.00, 0.00, 0.00, 0.00, 0.00, -24306.96, 0.00, 0.00, 0.00, 0.00, 0.00, 0.00, 0.00, 0.00, 0.00, 0.000, 0.000, 0.000, 15:21:03.848
64, 0.00, 0.00, 0.00, 0.00, 0.00, 0.00, -24303.23, 0.00, 0.00, 0.00, 0.00, 0.00, 0.00, 0.00, 0.00, 0.00, 0.000, 0.000, 0.000, 15:21:03.849
65, 0.00, 0.00, 0.00, 0.00, 0.00, 0.00, -24390.11, 0.00, 0.00, 0.00, 0.00, 0.00, 0.00, 0.00, 0.00, 0.00, 0.000, 0.000, 0.000, 15:21:03.849
66, 0.00, 0.00, 0.00, 0.00, 0.00, 0.00, -24227.72, 0.00, 0.00, 0.00, 0.00, 0.00, 0.00, 0.00, 0.00, 0.00, 0.000, 0.000, 0.000, 15:21:03.849
67, 0.00, 0.00, 0.00, 0.00, 0.00, 0.00, -24437.23, 0.00, 0.00, 0.00, 0.00, 0.00, 0.00, 0.00, 0.00, 0.00, 0.000, 0.000, 0.000, 15:21:03.849
68, 0.00, 0.00, 0.00, 0.00, 0.00, 0.00, -24153.05, 0.00, 0.00, 0.00, 0.00, 0.00, 0.00, 0.00, 0.00, 0.00, 0.000, 0.000, 0.000, 15:21:03.849
69, 0.00, 0.00, 0.00, 0.00, 0.00, 0.00, -24492.75, 0.00, 0.00, 0.00, 0.00, 0.00, 0.00, 0.00, 0.00, 0.00, 0.000, 0.000, 0.000, 15:21:03.850
70, 0.00, 0.00, 0.00, 0.00, 0.00, 0.00, -24103.85, 0.00, 0.00, 0.00, 0.00, 0.00, 0.00, 0.00, 0.00, 0.00, 0.000, 0.000, 0.000, 15:21:03.850
71, 0.00, 0.00, 0.00, 0.00, 0.00, 0.00, -24564.39, 0.00, 0.00, 0.00, 0.00, 0.00, 0.00, 0.00, 0.00, 0.00, 0.000, 0.000, 0.000, 15:21:03.850
72, 0.00, 0.00, 0.00, 0.00, 0.00, 0.00, -24068.92, 0.00, 0.00, 0.00, 0.00, 0.00, 0.00, 0.00, 0.00, 0.00, 0.000, 0.000, 0.000, 15:21:03.851
73, 0.00, 0.00, 0.00, 0.00, 0.00, 0.00, -24584.46, 0.00, 0.00, 0.00, 0.00, 0.00, 0.00, 0.00, 0.00, 0.00, 0.000, 0.000, 0.000, 15:21:03.851
74, 0.00, 0.00, 0.00, 0.00, 0.00, 0.00, -24035.32, 0.00, 0.00, 0.00, 0.00, 0.00, 0.00, 0.00, 0.00, 0.00, 0.000, 0.000, 0.000, 15:21:03.852
75, 0.00, 0.00, 0.00, 0.00, 0.00, 0.00, -24592.80, 0.00, 0.00, 0.00, 0.00, 0.00, 0.00, 0.00, 0.00, 0.00, 0.000, 0.000, 0.000, 15:21:03.852
76, 0.00, 0.00, 0.00, 0.00, 0.00, 0.00, -24021.69, 0.00, 0.00, 0.00, 0.00, 0.00, 0.00, 0.00, 0.00, 0.00, 0.000, 0.000, 0.000, 15:21:03.852
77, 0.00, 0.00, 0.00, 0.00, 0.00, 0.00, -24579.79, 0.00, 0.00, 0.00, 0.00, 0.00, 0.00, 0.00, 0.00, 0.00, 0.000, 0.000, 0.000, 15:21:03.852
78, 0.00, 0.00, 0.00, 0.00, 0.00, 0.00, -24009.46, 0.00, 0.00, 0.00, 0.00, 0.00, 0.00, 0.00, 0.00, 0.00, 0.000, 0.000, 0.000, 15:21:03.852
79, 0.00, 0.00, 0.00, 0.00, 0.00, 0.00, -24563.72, 0.00, 0.00, 0.00, 0.00, 0.00, 0.00, 0.00, 0.00, 0.00, 0.000, 0.000, 0.000, 15:21:03.852
80, 0.00, 0.00, 0.00, 0.00, 0.00, 0.00, -24076.87, 0.00, 0.00, 0.00, 0.00, 0.00, 0.00, 0.00, 0.00, 0.00, 0.000, 0.000, 0.000, 15:21:03.852
81, 0.00, 0.00, 0.00, 0.00, 0.00, 0.00, -24531.57, 0.00, 0.00, 0.00, 0.00, 0.00, 0.00, 0.00, 0.00, 0.00, 0.000, 0.000, 0.000, 15:21:03.853
82, 0.00, 0.00, 0.00, 0.00, 0.00, 0.00, -24119.01, 0.00, 0.00, 0.00, 0.00, 0.00, 0.00, 0.00, 0.00, 0.00, 0.000, 0.000, 0.000, 15:21:03.853
83, 0.00, 0.00, 0.00, 0.00, 0.00, 0.00, -24500.48, 0.00, 0.00, 0.00, 0.00, 0.00, 0.00, 0.00, 0.00, 0.00, 0.000, 0.000, 0.000, 15:21:03.853
84, 0.00, 0.00, 0.00, 0.00, 0.00, 0.00, -24175.29, 0.00, 0.00, 0.00, 0.00, 0.00, 0.00, 0.00, 0.00, 0.00, 0.000, 0.000, 0.000, 15:21:03.853
85, 0.00, 0.00, 0.00, 0.00, 0.00, 0.00, -24413.67, 0.00, 0.00, 0.00, 0.00, 0.00, 0.00, 0.00, 0.00, 0.00, 0.000, 0.000, 0.000, 15:21:03.853
86, 0.00, 0.00, 0.00, 0.00, 0.00, 0.00, -24218.11, 0.00, 0.00, 0.00, 0.00, 0.00, 0.00, 0.00, 0.00, 0.00, 0.000, 0.000, 0.000, 15:21:03.853
87, 0.00, 0.00, 0.00, 0.00, 0.00, 0.00, -24328.96, 0.00, 0.00, 0.00, 0.00, 0.00, 0.00, 0.00, 0.00, 0.00, 0.000, 0.000, 0.000, 15:21:03.853
88, 0.00, 0.00, 0.00, 0.00, 0.00, 0.00, -24312.46, 0.00, 0.00, 0.00, 0.00, 0.00, 0.00, 0.00, 0.00, 0.00, 0.000, 0.000, 0.000, 15:21:03.853
89, 0.00, 0.00, 0.00, 0.00, 0.00, 0.00, -24269.19, 0.00, 0.00, 0.00, 0.00, 0.00, 0.00, 0.00, 0.00, 0.00, 0.000, 0.000, 0.000, 15:21:03.854
90, 0.00, 0.00, 0.00, 0.00, 0.00, 0.00, -24401.78, 0.00, 0.00, 0.00, 0.00, 0.00, 0.00, 0.00, 0.00, 0.00, 0.000, 0.000, 0.000, 15:21:03.854
91, 0.00, 0.00, 0.00, 0.00, 0.00, 0.00, -24225.04, 0.00, 0.00, 0.00, 0.00, 0.00, 0.00, 0.00, 0.00, 0.00, 0.000, 0.000, 0.000, 15:21:03.854
92, 0.00, 0.00, 0.00, 0.00, 0.00, 0.00, -24465.35, 0.00, 0.00, 0.00, 0.00, 0.00, 0.00, 0.00, 0.00, 0.00, 0.000, 0.000, 0.000, 15:21:03.854
93, 0.00, 0.00, 0.00, 0.00, 0.00, 0.00, -24156.56, 0.00, 0.00, 0.00, 0.00, 0.00, 0.00, 0.00, 0.00, 0.00, 0.000, 0.000, 0.000, 15:21:03.854
94, 0.00, 0.00, 0.00, 0.00, 0.00, 0.00, -24502.00, 0.00, 0.00, 0.00, 0.00, 0.00, 0.00, 0.00, 0.00, 0.00, 0.000, 0.000, 0.000, 15:21:03.854
95, 0.00, 0.00, 0.00, 0.00, 0.00, 0.00, -24092.72, 0.00, 0.00, 0.00, 0.00, 0.00, 0.00, 0.00, 0.00, 0.00, 0.000, 0.000, 0.000, 15:21:03.854
96, 0.00, 0.00, 0.00, 0.00, 0.00, 0.00, -24572.03, 0.00, 0.00, 0.00, 0.00, 0.00, 0.00, 0.00, 0.00, 0.00, 0.000, 0.000, 0.000, 15:21:03.854
97, 0.00, 0.00, 0.00, 0.00, 0.00, 0.00, -24057.18, 0.00, 0.00, 0.00, 0.00, 0.00, 0.00, 0.00, 0.00, 0.00, 0.000, 0.000, 0.000, 15:21:03.854
98, 0.00, 0.00, 0.00, 0.00, 0.00, 0.00, -24584.33, 0.00, 0.00, 0.00, 0.00, 0.00, 0.00, 0.00, 0.00, 0.00, 0.000, 0.000, 0.000, 15:21:03.855
99, 0.00, 0.00, 0.00, 0.00, 0.00, 0.00, -24025.06, 0.00, 0.00, 0.00, 0.00, 0.00, 0.00, 0.00, 0.00, 0.00, 0.000, 0.000, 0.000, 15:21:03.855
100, 0.00, 0.00, 0.00, 0.00, 0.00, 0.00, -24611.84, 0.00, 0.00, 0.00, 0.00, 0.00, 0.00, 0.00, 0.00, 0.00, 0.000, 0.000, 0.000, 15:21:03.855
101, 0.00, 0.00, 0.00, 0.00, 0.00, 0.00, -24032.88, 0.00, 0.00, 0.00, 0.00, 0.00, 0.00, 0.00, 0.00, 0.00, 0.000, 0.000, 0.000, 15:21:03.855
102, 0.00, 0.00, 0.00, 0.00, 0.00, 0.00, -24596.26, 0.00, 0.00, 0.00, 0.00, 0.00, 0.00, 0.00, 0.00, 0.00, 0.000, 0.000, 0.000, 15:21:03.855
103, 0.00, 0.00, 0.00, 0.00, 0.00, 0.00, -24021.06, 0.00, 0.00, 0.00, 0.00, 0.00, 0.00, 0.00, 0.00, 0.00, 0.000, 0.000, 0.000, 15:21:03.855
104, 0.00, 0.00, 0.00, 0.00, 0.00, 0.00, -24536.22, 0.00, 0.00, 0.00, 0.00, 0.00, 0.00, 0.00, 0.00, 0.00, 0.000, 0.000, 0.000, 15:21:03.855
105, 0.00, 0.00, 0.00, 0.00, 0.00, 0.00, -24021.06, 0.00, 0.00, 0.00, 0.00, 0.00, 0.00, 0.00, 0.00, 0.00, 0.000, 0.000, 0.000, 15:21:03.855
106, 0.00, 0.00, 0.00, 0.00, 0.00, 0.00, -24485.15, 0.00, 0.00, 0.00, 0.00, 0.00, 0.00, 0.00, 0.00, 0.00, 0.000, 0.000, 0.000, 15:21:04.327
107, 0.00, 0.00, 0.00, 0.00, 0.00, 0.00, -24075.46, 0.00, 0.00, 0.00, 0.00, 0.00, 0.00, 0.00, 0.00, 0.00, 0.000, 0.000, 0.000, 15:21:04.327
108, 0.00, 0.00, 0.00, 0.00, 0.00, 0.00, -24416.31, 0.00, 0.00, 0.00, 0.00, 0.00, 0.00, 0.00, 0.00, 0.00, 0.000, 0.000, 0.000, 15:21:04.327
109, 0.00, 0.00, 0.00, 0.00, 0.00, 0.00, -24125.31, 0.00, 0.00, 0.00, 0.00, 0.00, 0.00, 0.00, 0.00, 0.00, 0.000, 0.000, 0.000, 15:21:04.328
110, 0.00, 0.00, 0.00, 0.00, 0.00, 0.00, -24360.96, 0.00, 0.00, 0.00, 0.00, 0.00, 0.00, 0.00, 0.00, 0.00, 0.000, 0.000, 0.000, 15:21:04.328
111, 0.00, 0.00, 0.00, 0.00, 0.00, 0.00, -24209.60, 0.00, 0.00, 0.00, 0.00, 0.00, 0.00, 0.00, 0.00, 0.00, 0.000, 0.000, 0.000, 15:21:04.328
112, 0.00, 0.00, 0.00, 0.00, 0.00, 0.00, -24306.61, 0.00, 0.00, 0.00, 0.00, 0.00, 0.00, 0.00, 0.00, 0.00, 0.000, 0.000, 0.000, 15:21:04.328
113, 0.00, 0.00, 0.00, 0.00, 0.00, 0.00, -24297.78, 0.00, 0.00, 0.00, 0.00, 0.00, 0.00, 0.00, 0.00, 0.00, 0.000, 0.000, 0.000, 15:21:04.328
114, 0.00, 0.00, 0.00, 0.00, 0.00, 0.00, -24224.80, 0.00, 0.00, 0.00, 0.00, 0.00, 0.00, 0.00, 0.00, 0.00, 0.000, 0.000, 0.000, 15:21:04.328
115, 0.00, 0.00, 0.00, 0.00, 0.00, 0.00, -24372.47, 0.00, 0.00, 0.00, 0.00, 0.00, 0.00, 0.00, 0.00, 0.00, 0.000, 0.000, 0.000, 15:21:04.328
116, 0.00, 0.00, 0.00, 0.00, 0.00, 0.00, -24156.67, 0.00, 0.00, 0.00, 0.00, 0.00, 0.00, 0.00, 0.00, 0.00, 0.000, 0.000, 0.000, 15:21:04.328
117, 0.00, 0.00, 0.00, 0.00, 0.00, 0.00, -24433.72, 0.00, 0.00, 0.00, 0.00, 0.00, 0.00, 0.00, 0.00, 0.00, 0.000, 0.000, 0.000, 15:21:04.328
118, 0.00, 0.00, 0.00, 0.00, 0.00, 0.00, -24106.20, 0.00, 0.00, 0.00, 0.00, 0.00, 0.00, 0.00, 0.00, 0.00, 0.000, 0.000, 0.000, 15:21:04.329
119, 0.00, 0.00, 0.00, 0.00, 0.00, 0.00, -24487.18, 0.00, 0.00, 0.00, 0.00, 0.00, 0.00, 0.00, 0.00, 0.00, 0.000, 0.000, 0.000, 15:21:04.329
120, 0.00, 0.00, 0.00, 0.00, 0.00, 0.00, -24046.70, 0.00, 0.00, 0.00, 0.00, 0.00, 0.00, 0.00, 0.00, 0.00, 0.000, 0.000, 0.000, 15:21:04.329
121, 0.00, 0.00, 0.00, 0.00, 0.00, 0.00, -24549.50, 0.00, 0.00, 0.00, 0.00, 0.00, 0.00, 0.00, 0.00, 0.00, 0.000, 0.000, 0.000, 15:21:04.329
122, 0.00, 0.00, 0.00, 0.00, 0.00, 0.00, -24008.34, 0.00, 0.00, 0.00, 0.00, 0.00, 0.00, 0.00, 0.00, 0.00, 0.000, 0.000, 0.000, 15:21:04.329
123, 0.00, 0.00, 0.00, 0.00, 0.00, 0.00, -24547.51, 0.00, 0.00, 0.00, 0.00, 0.00, 0.00, 0.00, 0.00, 0.00, 0.000, 0.000, 0.000, 15:21:04.330
124, 0.00, 0.00, 0.00, 0.00, 0.00, 0.00, -23995.96, 0.00, 0.00, 0.00, 0.00, 0.00, 0.00, 0.00, 0.00, 0.00, 0.000, 0.000, 0.000, 15:21:04.330
125, 0.00, 0.00, 0.00, 0.00, 0.00, 0.00, -24580.82, 0.00, 0.00, 0.00, 0.00, 0.00, 0.00, 0.00, 0.00, 0.00, 0.000, 0.000, 0.000, 15:21:04.330
126, 0.00, 0.00, 0.00, 0.00, 0.00, 0.00, -23998.55, 0.00, 0.00, 0.00, 0.00, 0.00, 0.00, 0.00, 0.00, 0.00, 0.000, 0.000, 0.000, 15:21:04.330
127, 0.00, 0.00, 0.00, 0.00, 0.00, 0.00, -24548.61, 0.00, 0.00, 0.00, 0.00, 0.00, 0.00, 0.00, 0.00, 0.00, 0.000, 0.000, 0.000, 15:21:04.330
0, 0.00, 0.00, 0.00, 0.00, 0.00, 0.00, -24010.56, 0.00, 0.00, 0.00, 0.00, 0.00, 0.00, 0.00, 0.00, 0.00, 0.000, 0.000, 0.000, 15:21:04.331
1, 0.00, 0.00, 0.00, 0.00, 0.00, 0.00, -24529.21, 0.00, 0.00, 0.00, 0.00, 0.00, 0.00, 0.00, 0.00, 0.00, 0.000, 0.000, 0.000, 15:21:04.331
2, 0.00, 0.00, 0.00, 0.00, 0.00, 0.00, -24039.88, 0.00, 0.00, 0.00, 0.00, 0.00, 0.00, 0.00, 0.00, 0.00, 0.000, 0.000, 0.000, 15:21:04.331
3, 0.00, 0.00, 0.00, 0.00, 0.00, 0.00, -24489.69, 0.00, 0.00, 0.00, 0.00, 0.00, 0.00, 0.00, 0.00, 0.00, 0.000, 0.000, 0.000, 15:21:04.331
4, 0.00, 0.00, 0.00, 0.00, 0.00, 0.00, -24115.70, 0.00, 0.00, 0.00, 0.00, 0.00, 0.00, 0.00, 0.00, 0.00, 0.000, 0.000, 0.000, 15:21:04.331
5, 0.00, 0.00, 0.00, 0.00, 0.00, 0.00, -24427.21, 0.00, 0.00, 0.00, 0.00, 0.00, 0.00, 0.00, 0.00, 0.00, 0.000, 0.000, 0.000, 15:21:04.332
6, 0.00, 0.00, 0.00, 0.00, 0.00, 0.00, -24170.44, 0.00, 0.00, 0.00, 0.00, 0.00, 0.00, 0.00, 0.00, 0.00, 0.000, 0.000, 0.000, 15:21:04.332
7, 0.00, 0.00, 0.00, 0.00, 0.00, 0.00, -24346.70, 0.00, 0.00, 0.00, 0.00, 0.00, 0.00, 0.00, 0.00, 0.00, 0.000, 0.000, 0.000, 15:21:04.332
8, 0.00, 0.00, 0.00, 0.00, 0.00, 0.00, -24233.45, 0.00, 0.00, 0.00, 0.00, 0.00, 0.00, 0.00, 0.00, 0.00, 0.000, 0.000, 0.000, 15:21:04.332
9, 0.00, 0.00, 0.00, 0.00, 0.00, 0.00, -24275.85, 0.00, 0.00, 0.00, 0.00, 0.00, 0.00, 0.00, 0.00, 0.00, 0.000, 0.000, 0.000, 15:21:04.332
10, 0.00, 0.00, 0.00, 0.00, 0.00, 0.00, -24302.67, 0.00, 0.00, 0.00, 0.00, 0.00, 0.00, 0.00, 0.00, 0.00, 0.000, 0.000, 0.000, 15:21:04.332
11, 0.00, 0.00, 0.00, 0.00, 0.00, 0.00, -24210.27, 0.00, 0.00, 0.00, 0.00, 0.00, 0.00, 0.00, 0.00, 0.00, 0.000, 0.000, 0.000, 15:21:04.333
12, 0.00, 0.00, 0.00, 0.00, 0.00, 0.00, -24372.95, 0.00, 0.00, 0.00, 0.00, 0.00, 0.00, 0.00, 0.00, 0.00, 0.000, 0.000, 0.000, 15:21:04.333
13, 0.00, 0.00, 0.00, 0.00, 0.00, 0.00, -24134.54, 0.00, 0.00, 0.00, 0.00, 0.00, 0.00, 0.00, 0.00, 0.00, 0.000, 0.000, 0.000, 15:21:04.333
14, 0.00, 0.00, 0.00, 0.00, 0.00, 0.00, -24445.14, 0.00, 0.00, 0.00, 0.00, 0.00, 0.00, 0.00, 0.00, 0.00, 0.000, 0.000, 0.000, 15:21:04.334
15, 0.00, 0.00, 0.00, 0.00, 0.00, 0.00, -24078.88, 0.00, 0.00, 0.00, 0.00, 0.00, 0.00, 0.00, 0.00, 0.00, 0.000, 0.000, 0.000, 15:21:04.335
16, 0.00, 0.00, 0.00, 0.00, 0.00, 0.00, -24509.09, 0.00, 0.00, 0.00, 0.00, 0.00, 0.00, 0.00, 0.00, 0.00, 0.000, 0.000, 0.000, 15:21:04.335
17, 0.00, 0.00, 0.00, 0.00, 0.00, 0.00, -24050.19, 0.00, 0.00, 0.00, 0.00, 0.00, 0.00, 0.00, 0.00, 0.00, 0.000, 0.000, 0.000, 15:21:04.335
18, 0.00, 0.00, 0.00, 0.00, 0.00, 0.00, -24543.09, 0.00, 0.00, 0.00, 0.00, 0.00, 0.00, 0.00, 0.00, 0.00, 0.000, 0.000, 0.000, 15:21:04.335
19, 0.00, 0.00, 0.00, 0.00, 0.00, 0.00, -24003.49, 0.00, 0.00, 0.00, 0.00, 0.00, 0.00, 0.00, 0.00, 0.00, 0.000, 0.000, 0.000, 15:21:04.335
20, 0.00, 0.00, 0.00, 0.00, 0.00, 0.00, -24582.34, 0.00, 0.00, 0.00, 0.00, 0.00, 0.00, 0.00, 0.00, 0.00, 0.000, 0.000, 0.000, 15:21:04.335
21, 0.00, 0.00, 0.00, 0.00, 0.00, 0.00, -24007.99, 0.00, 0.00, 0.00, 0.00, 0.00, 0.00, 0.00, 0.00, 0.00, 0.000, 0.000, 0.000, 15:21:04.336
22, 0.00, 0.00, 0.00, 0.00, 0.00, 0.00, -24579.03, 0.00, 0.00, 0.00, 0.00, 0.00, 0.00, 0.00, 0.00, 0.00, 0.000, 0.000, 0.000, 15:21:04.336
23, 0.00, 0.00, 0.00, 0.00, 0.00, 0.00, -24012.05, 0.00, 0.00, 0.00, 0.00, 0.00, 0.00, 0.00, 0.00, 0.00, 0.000, 0.000, 0.000, 15:21:04.336
24, 0.00, 0.00, 0.00, 0.00, 0.00, 0.00, -24566.18, 0.00, 0.00, 0.00, 0.00, 0.00, 0.00, 0.00, 0.00, 0.00, 0.000, 0.000, 0.000, 15:21:04.336
25, 0.00, 0.00, 0.00, 0.00, 0.00, 0.00, -24009.28, 0.00, 0.00, 0.00, 0.00, 0.00, 0.00, 0.00, 0.00, 0.00, 0.000, 0.000, 0.000, 15:21:04.336
26, 0.00, 0.00, 0.00, 0.00, 0.00, 0.00, -24519.08, 0.00, 0.00, 0.00, 0.00, 0.00, 0.00, 0.00, 0.00, 0.00, 0.000, 0.000, 0.000, 15:21:04.337
27, 0.00, 0.00, 0.00, 0.00, 0.00, 0.00, -24057.38, 0.00, 0.00, 0.00, 0.00, 0.00, 0.00, 0.00, 0.00, 0.00, 0.000, 0.000, 0.000, 15:21:04.337
28, 0.00, 0.00, 0.00, 0.00, 0.00, 0.00, -24486.51, 0.00, 0.00, 0.00, 0.00, 0.00, 0.00, 0.00, 0.00, 0.00, 0.000, 0.000, 0.000, 15:21:04.337
29, 0.00, 0.00, 0.00, 0.00, 0.00, 0.00, -24116.19, 0.00, 0.00, 0.00, 0.00, 0.00, 0.00, 0.00, 0.00, 0.00, 0.000, 0.000, 0.000, 15:21:04.337
30, 0.00, 0.00, 0.00, 0.00, 0.00, 0.00, -24417.71, 0.00, 0.00, 0.00, 0.00, 0.00, 0.00, 0.00, 0.00, 0.00, 0.000, 0.000, 0.000, 15:21:04.337
31, 0.00, 0.00, 0.00, 0.00, 0.00, 0.00, -24188.50, 0.00, 0.00, 0.00, 0.00, 0.00, 0.00, 0.00, 0.00, 0.00, 0.000, 0.000, 0.000, 15:21:04.338
32, 0.00, 0.00, 0.00, 0.00, 0.00, 0.00, -24354.17, 0.00, 0.00, 0.00, 0.00, 0.00, 0.00, 0.00, 0.00, 0.00, 0.000, 0.000, 0.000, 15:21:04.338
33, 0.00, 0.00, 0.00, 0.00, 0.00, 0.00, -24268.92, 0.00, 0.00, 0.00, 0.00, 0.00, 0.00, 0.00, 0.00, 0.00, 0.000, 0.000, 0.000, 15:21:04.338
34, 0.00, 0.00, 0.00, 0.00, 0.00, 0.00, -24279.49, 0.00, 0.00, 0.00, 0.00, 0.00, 0.00, 0.00, 0.00, 0.00, 0.000, 0.000, 0.000, 15:21:04.338
35, 0.00, 0.00, 0.00, 0.00, 0.00, 0.00, -24345.68, 0.00, 0.00, 0.00, 0.00, 0.00, 0.00, 0.00, 0.00, 0.00, 0.000, 0.000, 0.000, 15:21:04.338
36, 0.00, 0.00, 0.00, 0.00, 0.00, 0.00, -24212.12, 0.00, 0.00, 0.00, 0.00, 0.00, 0.00, 0.00, 0.00, 0.00, 0.000, 0.000, 0.000, 15:21:04.338
37, 0.00, 0.00, 0.00, 0.00, 0.00, 0.00, -24413.76, 0.00, 0.00, 0.00, 0.00, 0.00, 0.00, 0.00, 0.00, 0.00, 0.000, 0.000, 0.000, 15:21:04.339
38, 0.00, 0.00, 0.00, 0.00, 0.00, 0.00, -24147.71, 0.00, 0.00, 0.00, 0.00, 0.00, 0.00, 0.00, 0.00, 0.00, 0.000, 0.000, 0.000, 15:21:04.808
39, 0.00, 0.00, 0.00, 0.00, 0.00, 0.00, -24476.39, 0.00, 0.00, 0.00, 0.00, 0.00, 0.00, 0.00, 0.00, 0.00, 0.000, 0.000, 0.000, 15:21:04.808
40, 0.00, 0.00, 0.00, 0.00, 0.00, 0.00, -24104.93, 0.00, 0.00, 0.00, 0.00, 0.00, 0.00, 0.00, 0.00, 0.00, 0.000, 0.000, 0.000, 15:21:04.809
41, 0.00, 0.00, 0.00, 0.00, 0.00, 0.00, -24551.47, 0.00, 0.00, 0.00, 0.00, 0.00, 0.00, 0.00, 0.00, 0.00, 0.000, 0.000, 0.000, 15:21:04.809
42, 0.00, 0.00, 0.00, 0.00, 0.00, 0.00, -24056.44, 0.00, 0.00, 0.00, 0.00, 0.00, 0.00, 0.00, 0.00, 0.00, 0.000, 0.000, 0.000, 15:21:04.809
43, 0.00, 0.00, 0.00, 0.00, 0.00, 0.00, -24587.92, 0.00, 0.00, 0.00, 0.00, 0.00, 0.00, 0.00, 0.00, 0.00, 0.000, 0.000, 0.000, 15:21:04.809
44, 0.00, 0.00, 0.00, 0.00, 0.00, 0.00, -24029.11, 0.00, 0.00, 0.00, 0.00, 0.00, 0.00, 0.00, 0.00, 0.00, 0.000, 0.000, 0.000, 15:21:04.809
45, 0.00, 0.00, 0.00, 0.00, 0.00, 0.00, -24604.80, 0.00, 0.00, 0.00, 0.00, 0.00, 0.00, 0.00, 0.00, 0.00, 0.000, 0.000, 0.000, 15:21:04.809
46, 0.00, 0.00, 0.00, 0.00, 0.00, 0.00, -24034.99, 0.00, 0.00, 0.00, 0.00, 0.00, 0.00, 0.00, 0.00, 0.00, 0.000, 0.000, 0.000, 15:21:04.809
47, 0.00, 0.00, 0.00, 0.00, 0.00, 0.00, -24612.33, 0.00, 0.00, 0.00, 0.00, 0.00, 0.00, 0.00, 0.00, 0.00, 0.000, 0.000, 0.000, 15:21:04.810
48, 0.00, 0.00, 0.00, 0.00, 0.00, 0.00, -24035.75, 0.00, 0.00, 0.00, 0.00, 0.00, 0.00, 0.00, 0.00, 0.00, 0.000, 0.000, 0.000, 15:21:04.810
49, 0.00, 0.00, 0.00, 0.00, 0.00, 0.00, -24589.69, 0.00, 0.00, 0.00, 0.00, 0.00, 0.00, 0.00, 0.00, 0.00, 0.000, 0.000, 0.000, 15:21:04.810
50, 0.00, 0.00, 0.00, 0.00, 0.00, 0.00, -24058.21, 0.00, 0.00, 0.00, 0.00, 0.00, 0.00, 0.00, 0.00, 0.00, 0.000, 0.000, 0.000, 15:21:04.810
51, 0.00, 0.00, 0.00, 0.00, 0.00, 0.00, -24553.10, 0.00, 0.00, 0.00, 0.00, 0.00, 0.00, 0.00, 0.00, 0.00, 0.000, 0.000, 0.000, 15:21:04.810
52, 0.00, 0.00, 0.00, 0.00, 0.00, 0.00, -24124.39, 0.00, 0.00, 0.00, 0.00, 0.00, 0.00, 0.00, 0.00, 0.00, 0.000, 0.000, 0.000, 15:21:04.810
53, 0.00, 0.00, 0.00, 0.00, 0.00, 0.00, -24509.69, 0.00, 0.00, 0.00, 0.00, 0.00, 0.00, 0.00, 0.00, 0.00, 0.000, 0.000, 0.000, 15:21:04.810
54, 0.00, 0.00, 0.00, 0.00, 0.00, 0.00, -24155.95, 0.00, 0.00, 0.00, 0.00, 0.00, 0.00, 0.00, 0.00, 0.00, 0.000, 0.000, 0.000, 15:21:04.811
55, 0.00, 0.00, 0.00, 0.00, 0.00, 0.00, -24435.53, 0.00, 0.00, 0.00, 0.00, 0.00, 0.00, 0.00, 0.00, 0.00, 0.000, 0.000, 0.000, 15:21:04.811
56, 0.00, 0.00, 0.00, 0.00, 0.00, 0.00, -24231.32, 0.00, 0.00, 0.00, 0.00, 0.00, 0.00, 0.00, 0.00, 0.00, 0.000, 0.000, 0.000, 15:21:04.811
57, 0.00, 0.00, 0.00, 0.00, 0.00, 0.00, -24377.46, 0.00, 0.00, 0.00, 0.00, 0.00, 0.00, 0.00, 0.00, 0.00, 0.000, 0.000, 0.000, 15:21:04.811
58, 0.00, 0.00, 0.00, 0.00, 0.00, 0.00, -24312.97, 0.00, 0.00, 0.00, 0.00, 0.00, 0.00, 0.00, 0.00, 0.00, 0.000, 0.000, 0.000, 15:21:04.811
59, 0.00, 0.00, 0.00, 0.00, 0.00, 0.00, -24288.68, 0.00, 0.00, 0.00, 0.00, 0.00, 0.00, 0.00, 0.00, 0.00, 0.000, 0.000, 0.000, 15:21:04.811
60, 0.00, 0.00, 0.00, 0.00, 0.00, 0.00, -24382.98, 0.00, 0.00, 0.00, 0.00, 0.00, 0.00, 0.00, 0.00, 0.00, 0.000, 0.000, 0.000, 15:21:04.811
61, 0.00, 0.00, 0.00, 0.00, 0.00, 0.00, -24212.37, 0.00, 0.00, 0.00, 0.00, 0.00, 0.00, 0.00, 0.00, 0.00, 0.000, 0.000, 0.000, 15:21:04.811
62, 0.00, 0.00, 0.00, 0.00, 0.00, 0.00, -24451.13, 0.00, 0.00, 0.00, 0.00, 0.00, 0.00, 0.00, 0.00, 0.00, 0.000, 0.000, 0.000, 15:21:04.811
63, 0.00, 0.00, 0.00, 0.00, 0.00, 0.00, -24167.02, 0.00, 0.00, 0.00, 0.00, 0.00, 0.00, 0.00, 0.00, 0.00, 0.000, 0.000, 0.000, 15:21:04.812
64, 0.00, 0.00, 0.00, 0.00, 0.00, 0.00, -24527.98, 0.00, 0.00, 0.00, 0.00, 0.00, 0.00, 0.00, 0.00, 0.00, 0.000, 0.000, 0.000, 15:21:04.812
65, 0.00, 0.00, 0.00, 0.00, 0.00, 0.00, -24138.70, 0.00, 0.00, 0.00, 0.00, 0.00, 0.00, 0.00, 0.00, 0.00, 0.000, 0.000, 0.000, 15:21:04.812
66, 0.00, 0.00, 0.00, 0.00, 0.00, 0.00, -24607.28, 0.00, 0.00, 0.00, 0.00, 0.00, 0.00, 0.00, 0.00, 0.00, 0.000, 0.000, 0.000, 15:21:04.812
67, 0.00, 0.00, 0.00, 0.00, 0.00, 0.00, -24088.07, 0.00, 0.00, 0.00, 0.00, 0.00, 0.00, 0.00, 0.00, 0.00, 0.000, 0.000, 0.000, 15:21:04.812
68, 0.00, 0.00, 0.00, 0.00, 0.00, 0.00, -24598.07, 0.00, 0.00, 0.00, 0.00, 0.00, 0.00, 0.00, 0.00, 0.00, 0.000, 0.000, 0.000, 15:21:04.812
69, 0.00, 0.00, 0.00, 0.00, 0.00, 0.00, -24015.03, 0.00, 0.00, 0.00, 0.00, 0.00, 0.00, 0.00, 0.00, 0.00, 0.000, 0.000, 0.000, 15:21:04.812
70, 0.00, 0.00, 0.00, 0.00, 0.00, 0.00, -24599.57, 0.00, 0.00, 0.00, 0.00, 0.00, 0.00, 0.00, 0.00, 0.00, 0.000, 0.000, 0.000, 15:21:04.812
71, 0.00, 0.00, 0.00, 0.00, 0.00, 0.00, -24037.80, 0.00, 0.00, 0.00, 0.00, 0.00, 0.00, 0.00, 0.00, 0.00, 0.000, 0.000, 0.000, 15:21:04.812
72, 0.00, 0.00, 0.00, 0.00, 0.00, 0.00, -24623.73, 0.00, 0.00, 0.00, 0.00, 0.00, 0.00, 0.00, 0.00, 0.00, 0.000, 0.000, 0.000, 15:21:04.813
73, 0.00, 0.00, 0.00, 0.00, 0.00, 0.00, -24047.48, 0.00, 0.00, 0.00, 0.00, 0.00, 0.00, 0.00, 0.00, 0.00, 0.000, 0.000, 0.000, 15:21:04.813
74, 0.00, 0.00, 0.00, 0.00, 0.00, 0.00, -24584.48, 0.00, 0.00, 0.00, 0.00, 0.00, 0.00, 0.00, 0.00, 0.00, 0.000, 0.000, 0.000, 15:21:04.813
75, 0.00, 0.00, 0.00, 0.00, 0.00, 0.00, -24074.19, 0.00, 0.00, 0.00, 0.00, 0.00, 0.00, 0.00, 0.00, 0.00, 0.000, 0.000, 0.000, 15:21:04.813
76, 0.00, 0.00, 0.00, 0.00, 0.00, 0.00, -24551.94, 0.00, 0.00, 0.00, 0.00, 0.00, 0.00, 0.00, 0.00, 0.00, 0.000, 0.000, 0.000, 15:21:04.813
77, 0.00, 0.00, 0.00, 0.00, 0.00, 0.00, -24127.32, 0.00, 0.00, 0.00, 0.00, 0.00, 0.00, 0.00, 0.00, 0.00, 0.000, 0.000, 0.000, 15:21:04.814
78, 0.00, 0.00, 0.00, 0.00, 0.00, 0.00, -24479.32, 0.00, 0.00, 0.00, 0.00, 0.00, 0.00, 0.00, 0.00, 0.00, 0.000, 0.000, 0.000, 15:21:04.814
79, 0.00, 0.00, 0.00, 0.00, 0.00, 0.00, -24189.06, 0.00, 0.00, 0.00, 0.00, 0.00, 0.00, 0.00, 0.00, 0.00, 0.000, 0.000, 0.000, 15:21:04.814
80, 0.00, 0.00, 0.00, 0.00, 0.00, 0.00, -24434.03, 0.00, 0.00, 0.00, 0.00, 0.00, 0.00, 0.00, 0.00, 0.00, 0.000, 0.000, 0.000, 15:21:04.814
81, 0.00, 0.00, 0.00, 0.00, 0.00, 0.00, -24250.48, 0.00, 0.00, 0.00, 0.00, 0.00, 0.00, 0.00, 0.00, 0.00, 0.000, 0.000, 0.000, 15:21:04.814
82, 0.00, 0.00, 0.00, 0.00, 0.00, 0.00, -24354.10, 0.00, 0.00, 0.00, 0.00, 0.00, 0.00, 0.00, 0.00, 0.00, 0.000, 0.000, 0.000, 15:21:04.814
83, 0.00, 0.00, 0.00, 0.00, 0.00, 0.00, -24331.64, 0.00, 0.00, 0.00, 0.00, 0.00, 0.00, 0.00, 0.00, 0.00, 0.000, 0.000, 0.000, 15:21:04.815
84, 0.00, 0.00, 0.00, 0.00, 0.00, 0.00, -24287.40, 0.00, 0.00, 0.00, 0.00, 0.00, 0.00, 0.00, 0.00, 0.00, 0.000, 0.000, 0.000, 15:21:04.815
85, 0.00, 0.00, 0.00, 0.00, 0.00, 0.00, -24385.33, 0.00, 0.00, 0.00, 0.00, 0.00, 0.00, 0.00, 0.00, 0.00, 0.000, 0.000, 0.000, 15:21:04.815
86, 0.00, 0.00, 0.00, 0.00, 0.00, 0.00, -24190.82, 0.00, 0.00, 0.00, 0.00, 0.00, 0.00, 0.00, 0.00, 0.00, 0.000, 0.000, 0.000, 15:21:04.815
87, 0.00, 0.00, 0.00, 0.00, 0.00, 0.00, -24449.32, 0.00, 0.00, 0.00, 0.00, 0.00, 0.00, 0.00, 0.00, 0.00, 0.000, 0.000, 0.000, 15:21:04.815
88, 0.00, 0.00, 0.00, 0.00, 0.00, 0.00, -24106.74, 0.00, 0.00, 0.00, 0.00, 0.00, 0.00, 0.00, 0.00, 0.00, 0.000, 0.000, 0.000, 15:21:04.815
89, 0.00, 0.00, 0.00, 0.00, 0.00, 0.00, -24489.38, 0.00, 0.00, 0.00, 0.00, 0.00, 0.00, 0.00, 0.00, 0.00, 0.000, 0.000, 0.000, 15:21:04.815
90, 0.00, 0.00, 0.00, 0.00, 0.00, 0.00, -24053.29, 0.00, 0.00, 0.00, 0.00, 0.00, 0.00, 0.00, 0.00, 0.00, 0.000, 0.000, 0.000, 15:21:04.816
91, 0.00, 0.00, 0.00, 0.00, 0.00, 0.00, -24536.92, 0.00, 0.00, 0.00, 0.00, 0.00, 0.00, 0.00, 0.00, 0.00, 0.000, 0.000, 0.000, 15:21:04.816
92, 0.00, 0.00, 0.00, 0.00, 0.00, 0.00, -23996.41, 0.00, 0.00, 0.00, 0.00, 0.00, 0.00, 0.00, 0.00, 0.00, 0.000, 0.000, 0.000, 15:21:04.816
93, 0.00, 0.00, 0.00, 0.00, 0.00, 0.00, -24555.13, 0.00, 0.00, 0.00, 0.00, 0.00, 0.00, 0.00, 0.00, 0.00, 0.000, 0.000, 0.000, 15:21:04.816
94, 0.00, 0.00, 0.00, 0.00, 0.00, 0.00, -24000.61, 0.00, 0.00, 0.00, 0.00, 0.00, 0.00, 0.00, 0.00, 0.00, 0.000, 0.000, 0.000, 15:21:04.816
95, 0.00, 0.00, 0.00, 0.00, 0.00, 0.00, -24573.04, 0.00, 0.00, 0.00, 0.00, 0.00, 0.00, 0.00, 0.00, 0.00, 0.000, 0.000, 0.000, 15:21:04.816
96, 0.00, 0.00, 0.00, 0.00, 0.00, 0.00, -23983.44, 0.00, 0.00, 0.00, 0.00, 0.00, 0.00, 0.00, 0.00, 0.00, 0.000, 0.000, 0.000, 15:21:04.817
97, 0.00, 0.00, 0.00, 0.00, 0.00, 0.00, -24588.93, 0.00, 0.00, 0.00, 0.00, 0.00, 0.00, 0.00, 0.00, 0.00, 0.000, 0.000, 0.000, 15:21:04.817
98, 0.00, 0.00, 0.00, 0.00, 0.00, 0.00, -24015.74, 0.00, 0.00, 0.00, 0.00, 0.00, 0.00, 0.00, 0.00, 0.00, 0.000, 0.000, 0.000, 15:21:05.289
99, 0.00, 0.00, 0.00, 0.00, 0.00, 0.00, -24547.38, 0.00, 0.00, 0.00, 0.00, 0.00, 0.00, 0.00, 0.00, 0.00, 0.000, 0.000, 0.000, 15:21:05.289
100, 0.00, 0.00, 0.00, 0.00, 0.00, 0.00, -24042.52, 0.00, 0.00, 0.00, 0.00, 0.00, 0.00, 0.00, 0.00, 0.00, 0.000, 0.000, 0.000, 15:21:05.289
101, 0.00, 0.00, 0.00, 0.00, 0.00, 0.00, -24497.69, 0.00, 0.00, 0.00, 0.00, 0.00, 0.00, 0.00, 0.00, 0.00, 0.000, 0.000, 0.000, 15:21:05.289
102, 0.00, 0.00, 0.00, 0.00, 0.00, 0.00, -24092.72, 0.00, 0.00, 0.00, 0.00, 0.00, 0.00, 0.00, 0.00, 0.00, 0.000, 0.000, 0.000, 15:21:05.289
103, 0.00, 0.00, 0.00, 0.00, 0.00, 0.00, -24445.54, 0.00, 0.00, 0.00, 0.00, 0.00, 0.00, 0.00, 0.00, 0.00, 0.000, 0.000, 0.000, 15:21:05.289
104, 0.00, 0.00, 0.00, 0.00, 0.00, 0.00, -24155.84, 0.00, 0.00, 0.00, 0.00, 0.00, 0.00, 0.00, 0.00, 0.00, 0.000, 0.000, 0.000, 15:21:05.290
105, 0.00, 0.00, 0.00, 0.00, 0.00, 0.00, -24383.83, 0.00, 0.00, 0.00, 0.00, 0.00, 0.00, 0.00, 0.00, 0.00, 0.000, 0.000, 0.000, 15:21:05.290
106, 0.00, 0.00, 0.00, 0.00, 0.00, 0.00, -24230.23, 0.00, 0.00, 0.00, 0.00, 0.00, 0.00, 0.00, 0.00, 0.00, 0.000, 0.000, 0.000, 15:21:05.290
107, 0.00, 0.00, 0.00, 0.00, 0.00, 0.00, -24308.86, 0.00, 0.00, 0.00, 0.00, 0.00, 0.00, 0.00, 0.00, 0.00, 0.000, 0.000, 0.000, 15:21:05.290
108, 0.00, 0.00, 0.00, 0.00, 0.00, 0.00, -24310.25, 0.00, 0.00, 0.00, 0.00, 0.00, 0.00, 0.00, 0.00, 0.00, 0.000, 0.000, 0.000, 15:21:05.290
109, 0.00, 0.00, 0.00, 0.00, 0.00, 0.00, -24248.27, 0.00, 0.00, 0.00, 0.00, 0.00, 0.00, 0.00, 0.00, 0.00, 0.000, 0.000, 0.000, 15:21:05.290
110, 0.00, 0.00, 0.00, 0.00, 0.00, 0.00, -24388.81, 0.00, 0.00, 0.00, 0.00, 0.00, 0.00, 0.00, 0.00, 0.00, 0.000, 0.000, 0.000, 15:21:05.290
111, 0.00, 0.00, 0.00, 0.00, 0.00, 0.00, -24166.66, 0.00, 0.00, 0.00, 0.00, 0.00, 0.00, 0.00, 0.00, 0.00, 0.000, 0.000, 0.000, 15:21:05.290
112, 0.00, 0.00, 0.00, 0.00, 0.00, 0.00, -24454.01, 0.00, 0.00, 0.00, 0.00, 0.00, 0.00, 0.00, 0.00, 0.00, 0.000, 0.000, 0.000, 15:21:05.291
113, 0.00, 0.00, 0.00, 0.00, 0.00, 0.00, -24101.13, 0.00, 0.00, 0.00, 0.00, 0.00, 0.00, 0.00, 0.00, 0.00, 0.000, 0.000, 0.000, 15:21:05.291
114, 0.00, 0.00, 0.00, 0.00, 0.00, 0.00, -24496.21, 0.00, 0.00, 0.00, 0.00, 0.00, 0.00, 0.00, 0.00, 0.00, 0.000, 0.000, 0.000, 15:21:05.291
115, 0.00, 0.00, 0.00, 0.00, 0.00, 0.00, -24077.99, 0.00, 0.00, 0.00, 0.00, 0.00, 0.00, 0.00, 0.00, 0.00, 0.000, 0.000, 0.000, 15:21:05.291
116, 0.00, 0.00, 0.00, 0.00, 0.00, 0.00, -24563.58, 0.00, 0.00, 0.00, 0.00, 0.00, 0.00, 0.00, 0.00, 0.00, 0.000, 0.000, 0.000, 15:21:05.291
117, 0.00, 0.00, 0.00, 0.00, 0.00, 0.00, -24044.80, 0.00, 0.00, 0.00, 0.00, 0.00, 0.00, 0.00, 0.00, 0.00, 0.000, 0.000, 0.000, 15:21:05.291
118, 0.00, 0.00, 0.00, 0.00, 0.00, 0.00, -24604.40, 0.00, 0.00, 0.00, 0.00, 0.00, 0.00, 0.00, 0.00, 0.00, 0.000, 0.000, 0.000, 15:21:05.291
119, 0.00, 0.00, 0.00, 0.00, 0.00, 0.00, -24018.20, 0.00, 0.00, 0.00, 0.00, 0.00, 0.00, 0.00, 0.00, 0.00, 0.000, 0.000, 0.000, 15:21:05.291
120, 0.00, 0.00, 0.00, 0.00, 0.00, 0.00, -24598.70, 0.00, 0.00, 0.00, 0.00, 0.00, 0.00, 0.00, 0.00, 0.00, 0.000, 0.000, 0.000, 15:21:05.292
121, 0.00, 0.00, 0.00, 0.00, 0.00, 0.00, -24031.28, 0.00, 0.00, 0.00, 0.00, 0.00, 0.00, 0.00, 0.00, 0.00, 0.000, 0.000, 0.000, 15:21:05.292
122, 0.00, 0.00, 0.00, 0.00, 0.00, 0.00, -24612.13, 0.00, 0.00, 0.00, 0.00, 0.00, 0.00, 0.00, 0.00, 0.00, 0.000, 0.000, 0.000, 15:21:05.292
123, 0.00, 0.00, 0.00, 0.00, 0.00, 0.00, -24029.89, 0.00, 0.00, 0.00, 0.00, 0.00, 0.00, 0.00, 0.00, 0.00, 0.000, 0.000, 0.000, 15:21:05.292
124, 0.00, 0.00, 0.00, 0.00, 0.00, 0.00, -24566.94, 0.00, 0.00, 0.00, 0.00, 0.00, 0.00, 0.00, 0.00, 0.00, 0.000, 0.000, 0.000, 15:21:05.292
125, 0.00, 0.00, 0.00, 0.00, 0.00, 0.00, -24085.93, 0.00, 0.00, 0.00, 0.00, 0.00, 0.00, 0.00, 0.00, 0.00, 0.000, 0.000, 0.000, 15:21:05.292
126, 0.00, 0.00, 0.00, 0.00, 0.00, 0.00, -24536.43, 0.00, 0.00, 0.00, 0.00, 0.00, 0.00, 0.00, 0.00, 0.00, 0.000, 0.000, 0.000, 15:21:05.293
127, 0.00, 0.00, 0.00, 0.00, 0.00, 0.00, -24133.85, 0.00, 0.00, 0.00, 0.00, 0.00, 0.00, 0.00, 0.00, 0.00, 0.000, 0.000, 0.000, 15:21:05.293
0, 0.00, 0.00, 0.00, 0.00, 0.00, 0.00, -24451.76, 0.00, 0.00, 0.00, 0.00, 0.00, 0.00, 0.00, 0.00, 0.00, 0.000, 0.000, 0.000, 15:21:05.293
1, 0.00, 0.00, 0.00, 0.00, 0.00, 0.00, -24199.14, 0.00, 0.00, 0.00, 0.00, 0.00, 0.00, 0.00, 0.00, 0.00, 0.000, 0.000, 0.000, 15:21:05.293
2, 0.00, 0.00, 0.00, 0.00, 0.00, 0.00, -24392.41, 0.00, 0.00, 0.00, 0.00, 0.00, 0.00, 0.00, 0.00, 0.00, 0.000, 0.000, 0.000, 15:21:05.293
3, 0.00, 0.00, 0.00, 0.00, 0.00, 0.00, -24291.14, 0.00, 0.00, 0.00, 0.00, 0.00, 0.00, 0.00, 0.00, 0.00, 0.000, 0.000, 0.000, 15:21:05.293
4, 0.00, 0.00, 0.00, 0.00, 0.00, 0.00, -24336.00, 0.00, 0.00, 0.00, 0.00, 0.00, 0.00, 0.00, 0.00, 0.00, 0.000, 0.000, 0.000, 15:21:05.293
5, 0.00, 0.00, 0.00, 0.00, 0.00, 0.00, -24351.49, 0.00, 0.00, 0.00, 0.00, 0.00, 0.00, 0.00, 0.00, 0.00, 0.000, 0.000, 0.000, 15:21:05.294
6, 0.00, 0.00, 0.00, 0.00, 0.00, 0.00, -24244.42, 0.00, 0.00, 0.00, 0.00, 0.00, 0.00, 0.00, 0.00, 0.00, 0.000, 0.000, 0.000, 15:21:05.294
7, 0.00, 0.00, 0.00, 0.00, 0.00, 0.00, -24435.35, 0.00, 0.00, 0.00, 0.00, 0.00, 0.00, 0.00, 0.00, 0.00, 0.000, 0.000, 0.000, 15:21:05.294
8, 0.00, 0.00, 0.00, 0.00, 0.00, 0.00, -24191.05, 0.00, 0.00, 0.00, 0.00, 0.00, 0.00, 0.00, 0.00, 0.00, 0.000, 0.000, 0.000, 15:21:05.294
9, 0.00, 0.00, 0.00, 0.00, 0.00, 0.00, -24507.05, 0.00, 0.00, 0.00, 0.00, 0.00, 0.00, 0.00, 0.00, 0.00, 0.000, 0.000, 0.000, 15:21:05.294
10, 0.00, 0.00, 0.00, 0.00, 0.00, 0.00, -24125.76, 0.00, 0.00, 0.00, 0.00, 0.00, 0.00, 0.00, 0.00, 0.00, 0.000, 0.000, 0.000, 15:21:05.294
11, 0.00, 0.00, 0.00, 0.00, 0.00, 0.00, -24545.41, 0.00, 0.00, 0.00, 0.00, 0.00, 0.00, 0.00, 0.00, 0.00, 0.000, 0.000, 0.000, 15:21:05.295
12, 0.00, 0.00, 0.00, 0.00, 0.00, 0.00, -24088.00, 0.00, 0.00, 0.00, 0.00, 0.00, 0.00, 0.00, 0.00, 0.00, 0.000, 0.000, 0.000, 15:21:05.295
13, 0.00, 0.00, 0.00, 0.00, 0.00, 0.00, -24595.86, 0.00, 0.00, 0.00, 0.00, 0.00, 0.00, 0.00, 0.00, 0.00, 0.000, 0.000, 0.000, 15:21:05.295
14, 0.00, 0.00, 0.00, 0.00, 0.00, 0.00, -24069.43, 0.00, 0.00, 0.00, 0.00, 0.00, 0.00, 0.00, 0.00, 0.00, 0.000, 0.000, 0.000, 15:21:05.295
15, 0.00, 0.00, 0.00, 0.00, 0.00, 0.00, -24627.60, 0.00, 0.00, 0.00, 0.00, 0.00, 0.00, 0.00, 0.00, 0.00, 0.000, 0.000, 0.000, 15:21:05.295
16, 0.00, 0.00, 0.00, 0.00, 0.00, 0.00, -24060.13, 0.00, 0.00, 0.00, 0.00, 0.00, 0.00, 0.00, 0.00, 0.00, 0.000, 0.000, 0.000, 15:21:05.295
17, 0.00, 0.00, 0.00, 0.00, 0.00, 0.00, -24612.53, 0.00, 0.00, 0.00, 0.00, 0.00, 0.00, 0.00, 0.00, 0.00, 0.000, 0.000, 0.000, 15:21:05.296
18, 0.00, 0.00, 0.00, 0.00, 0.00, 0.00, -24079.62, 0.00, 0.00, 0.00, 0.00, 0.00, 0.00, 0.00, 0.00, 0.00, 0.000, 0.000, 0.000, 15:21:05.296
19, 0.00, 0.00, 0.00, 0.00, 0.00, 0.00, -24596.89, 0.00, 0.00, 0.00, 0.00, 0.00, 0.00, 0.00, 0.00, 0.00, 0.000, 0.000, 0.000, 15:21:05.296
20, 0.00, 0.00, 0.00, 0.00, 0.00, 0.00, -24098.04, 0.00, 0.00, 0.00, 0.00, 0.00, 0.00, 0.00, 0.00, 0.00, 0.000, 0.000, 0.000, 15:21:05.296
21, 0.00, 0.00, 0.00, 0.00, 0.00, 0.00, -24563.07, 0.00, 0.00, 0.00, 0.00, 0.00, 0.00, 0.00, 0.00, 0.00, 0.000, 0.000, 0.000, 15:21:05.296
22, 0.00, 0.00, 0.00, 0.00, 0.00, 0.00, -24156.56, 0.00, 0.00, 0.00, 0.00, 0.00, 0.00, 0.00, 0.00, 0.00, 0.000, 0.000, 0.000, 15:21:05.296
23, 0.00, 0.00, 0.00, 0.00, 0.00, 0.00, -24530.21, 0.00, 0.00, 0.00, 0.00, 0.00, 0.00, 0.00, 0.00, 0.00, 0.000, 0.000, 0.000, 15:21:05.297
24, 0.00, 0.00, 0.00, 0.00, 0.00, 0.00, -24215.10, 0.00, 0.00, 0.00, 0.00, 0.00, 0.00, 0.00, 0.00, 0.00, 0.000, 0.000, 0.000, 15:21:05.297
25, 0.00, 0.00, 0.00, 0.00, 0.00, 0.00, -24469.66, 0.00, 0.00, 0.00, 0.00, 0.00, 0.00, 0.00, 0.00, 0.00, 0.000, 0.000, 0.000, 15:21:05.297
26, 0.00, 0.00, 0.00, 0.00, 0.00, 0.00, -24295.61, 0.00, 0.00, 0.00, 0.00, 0.00, 0.00, 0.00, 0.00, 0.00, 0.000, 0.000, 0.000, 15:21:05.297
27, 0.00, 0.00, 0.00, 0.00, 0.00, 0.00, -24415.03, 0.00, 0.00, 0.00, 0.00, 0.00, 0.00, 0.00, 0.00, 0.00, 0.000, 0.000, 0.000, 15:21:05.297
28, 0.00, 0.00, 0.00, 0.00, 0.00, 0.00, -24371.00, 0.00, 0.00, 0.00, 0.00, 0.00, 0.00, 0.00, 0.00, 0.00, 0.000, 0.000, 0.000, 15:21:05.297
29, 0.00, 0.00, 0.00, 0.00, 0.00, 0.00, -24343.28, 0.00, 0.00, 0.00, 0.00, 0.00, 0.00, 0.00, 0.00, 0.00, 0.000, 0.000, 0.000, 15:21:05.298
30, 0.00, 0.00, 0.00, 0.00, 0.00, 0.00, -24425.54, 0.00, 0.00, 0.00, 0.00, 0.00, 0.00, 0.00, 0.00, 0.00, 0.000, 0.000, 0.000, 15:21:05.769
31, 0.00, 0.00, 0.00, 0.00, 0.00, 0.00, -24278.80, 0.00, 0.00, 0.00, 0.00, 0.00, 0.00, 0.00, 0.00, 0.00, 0.000, 0.000, 0.000, 15:21:05.769
32, 0.00, 0.00, 0.00, 0.00, 0.00, 0.00, -24518.99, 0.00, 0.00, 0.00, 0.00, 0.00, 0.00, 0.00, 0.00, 0.00, 0.000, 0.000, 0.000, 15:21:05.769
33, 0.00, 0.00, 0.00, 0.00, 0.00, 0.00, -24232.73, 0.00, 0.00, 0.00, 0.00, 0.00, 0.00, 0.00, 0.00, 0.00, 0.000, 0.000, 0.000, 15:21:05.769
34, 0.00, 0.00, 0.00, 0.00, 0.00, 0.00, -24559.60, 0.00, 0.00, 0.00, 0.00, 0.00, 0.00, 0.00, 0.00, 0.00, 0.000, 0.000, 0.000, 15:21:05.770
35, 0.00, 0.00, 0.00, 0.00, 0.00, 0.00, -24174.82, 0.00, 0.00, 0.00, 0.00, 0.00, 0.00, 0.00, 0.00, 0.00, 0.000, 0.000, 0.000, 15:21:05.770
36, 0.00, 0.00, 0.00, 0.00, 0.00, 0.00, -24629.34, 0.00, 0.00, 0.00, 0.00, 0.00, 0.00, 0.00, 0.00, 0.00, 0.000, 0.000, 0.000, 15:21:05.770
37, 0.00, 0.00, 0.00, 0.00, 0.00, 0.00, -24164.92, 0.00, 0.00, 0.00, 0.00, 0.00, 0.00, 0.00, 0.00, 0.00, 0.000, 0.000, 0.000, 15:21:05.770
38, 0.00, 0.00, 0.00, 0.00, 0.00, 0.00, -24648.70, 0.00, 0.00, 0.00, 0.00, 0.00, 0.00, 0.00, 0.00, 0.00, 0.000, 0.000, 0.000, 15:21:05.770
39, 0.00, 0.00, 0.00, 0.00, 0.00, 0.00, -24141.63, 0.00, 0.00, 0.00, 0.00, 0.00, 0.00, 0.00, 0.00, 0.00, 0.000, 0.000, 0.000, 15:21:05.770
40, 0.00, 0.00, 0.00, 0.00, 0.00, 0.00, -24653.10, 0.00, 0.00, 0.00, 0.00, 0.00, 0.00, 0.00, 0.00, 0.00, 0.000, 0.000, 0.000, 15:21:05.770
41, 0.00, 0.00, 0.00, 0.00, 0.00, 0.00, -24137.69, 0.00, 0.00, 0.00, 0.00, 0.00, 0.00, 0.00, 0.00, 0.00, 0.000, 0.000, 0.000, 15:21:05.770
42, 0.00, 0.00, 0.00, 0.00, 0.00, 0.00, -24650.98, 0.00, 0.00, 0.00, 0.00, 0.00, 0.00, 0.00, 0.00, 0.00, 0.000, 0.000, 0.000, 15:21:05.770
43, 0.00, 0.00, 0.00, 0.00, 0.00, 0.00, -24146.23, 0.00, 0.00, 0.00, 0.00, 0.00, 0.00, 0.00, 0.00, 0.00, 0.000, 0.000, 0.000, 15:21:05.771
44, 0.00, 0.00, 0.00, 0.00, 0.00, 0.00, -24639.36, 0.00, 0.00, 0.00, 0.00, 0.00, 0.00, 0.00, 0.00, 0.00, 0.000, 0.000, 0.000, 15:21:05.771
45, 0.00, 0.00, 0.00, 0.00, 0.00, 0.00, -24176.50, 0.00, 0.00, 0.00, 0.00, 0.00, 0.00, 0.00, 0.00, 0.00, 0.000, 0.000, 0.000, 15:21:05.771
46, 0.00, 0.00, 0.00, 0.00, 0.00, 0.00, -24585.53, 0.00, 0.00, 0.00, 0.00, 0.00, 0.00, 0.00, 0.00, 0.00, 0.000, 0.000, 0.000, 15:21:05.771
47, 0.00, 0.00, 0.00, 0.00, 0.00, 0.00, -24220.69, 0.00, 0.00, 0.00, 0.00, 0.00, 0.00, 0.00, 0.00, 0.00, 0.000, 0.000, 0.000, 15:21:05.771
48, 0.00, 0.00, 0.00, 0.00, 0.00, 0.00, -24552.03, 0.00, 0.00, 0.00, 0.00, 0.00, 0.00, 0.00, 0.00, 0.00, 0.000, 0.000, 0.000, 15:21:05.771
49, 0.00, 0.00, 0.00, 0.00, 0.00, 0.00, -24301.75, 0.00, 0.00, 0.00, 0.00, 0.00, 0.00, 0.00, 0.00, 0.00, 0.000, 0.000, 0.000, 15:21:05.771
50, 0.00, 0.00, 0.00, 0.00, 0.00, 0.00, -24514.45, 0.00, 0.00, 0.00, 0.00, 0.00, 0.00, 0.00, 0.00, 0.00, 0.000, 0.000, 0.000, 15:21:05.771
51, 0.00, 0.00, 0.00, 0.00, 0.00, 0.00, -24360.94, 0.00, 0.00, 0.00, 0.00, 0.00, 0.00, 0.00, 0.00, 0.00, 0.000, 0.000, 0.000, 15:21:05.771
52, 0.00, 0.00, 0.00, 0.00, 0.00, 0.00, -24414.56, 0.00, 0.00, 0.00, 0.00, 0.00, 0.00, 0.00, 0.00, 0.00, 0.000, 0.000, 0.000, 15:21:05.771
53, 0.00, 0.00, 0.00, 0.00, 0.00, 0.00, -24405.69, 0.00, 0.00, 0.00, 0.00, 0.00, 0.00, 0.00, 0.00, 0.00, 0.000, 0.000, 0.000, 15:21:05.771
54, 0.00, 0.00, 0.00, 0.00, 0.00, 0.00, -24373.19, 0.00, 0.00, 0.00, 0.00, 0.00, 0.00, 0.00, 0.00, 0.00, 0.000, 0.000, 0.000, 15:21:05.772
55, 0.00, 0.00, 0.00, 0.00, 0.00, 0.00, -24481.89, 0.00, 0.00, 0.00, 0.00, 0.00, 0.00, 0.00, 0.00, 0.00, 0.000, 0.000, 0.000, 15:21:05.772
56, 0.00, 0.00, 0.00, 0.00, 0.00, 0.00, -24315.52, 0.00, 0.00, 0.00, 0.00, 0.00, 0.00, 0.00, 0.00, 0.00, 0.000, 0.000, 0.000, 15:21:05.772
57, 0.00, 0.00, 0.00, 0.00, 0.00, 0.00, -24547.82, 0.00, 0.00, 0.00, 0.00, 0.00, 0.00, 0.00, 0.00, 0.00, 0.000, 0.000, 0.000, 15:21:05.772
58, 0.00, 0.00, 0.00, 0.00, 0.00, 0.00, -24280.30, 0.00, 0.00, 0.00, 0.00, 0.00, 0.00, 0.00, 0.00, 0.00, 0.000, 0.000, 0.000, 15:21:05.772
59, 0.00, 0.00, 0.00, 0.00, 0.00, 0.00, -24607.15, 0.00, 0.00, 0.00, 0.00, 0.00, 0.00, 0.00, 0.00, 0.00, 0.000, 0.000, 0.000, 15:21:05.772
60, 0.00, 0.00, 0.00, 0.00, 0.00, 0.00, -24229.47, 0.00, 0.00, 0.00, 0.00, 0.00, 0.00, 0.00, 0.00, 0.00, 0.000, 0.000, 0.000, 15:21:05.772
61, 0.00, 0.00, 0.00, 0.00, 0.00, 0.00, -24644.07, 0.00, 0.00, 0.00, 0.00, 0.00, 0.00, 0.00, 0.00, 0.00, 0.000, 0.000, 0.000, 15:21:05.772
62, 0.00, 0.00, 0.00, 0.00, 0.00, 0.00, -24220.53, 0.00, 0.00, 0.00, 0.00, 0.00, 0.00, 0.00, 0.00, 0.00, 0.000, 0.000, 0.000, 15:21:05.772
63, 0.00, 0.00, 0.00, 0.00, 0.00, 0.00, -24696.06, 0.00, 0.00, 0.00, 0.00, 0.00, 0.00, 0.00, 0.00, 0.00, 0.000, 0.000, 0.000, 15:21:05.772
64, 0.00, 0.00, 0.00, 0.00, 0.00, 0.00, -24210.25, 0.00, 0.00, 0.00, 0.00, 0.00, 0.00, 0.00, 0.00, 0.00, 0.000, 0.000, 0.000, 15:21:05.772
65, 0.00, 0.00, 0.00, 0.00, 0.00, 0.00, -24700.40, 0.00, 0.00, 0.00, 0.00, 0.00, 0.00, 0.00, 0.00, 0.00, 0.000, 0.000, 0.000, 15:21:05.773
66, 0.00, 0.00, 0.00, 0.00, 0.00, 0.00, -24210.60, 0.00, 0.00, 0.00, 0.00, 0.00, 0.00, 0.00, 0.00, 0.00, 0.000, 0.000, 0.000, 15:21:05.773
67, 0.00, 0.00, 0.00, 0.00, 0.00, 0.00, -24680.64, 0.00, 0.00, 0.00, 0.00, 0.00, 0.00, 0.00, 0.00, 0.00, 0.000, 0.000, 0.000, 15:21:05.773
68, 0.00, 0.00, 0.00, 0.00, 0.00, 0.00, -24234.01, 0.00, 0.00, 0.00, 0.00, 0.00, 0.00, 0.00, 0.00, 0.00, 0.000, 0.000, 0.000, 15:21:05.773
69, 0.00, 0.00, 0.00, 0.00, 0.00, 0.00, -24645.75, 0.00, 0.00, 0.00, 0.00, 0.00, 0.00, 0.00, 0.00, 0.00, 0.000, 0.000, 0.000, 15:21:05.773
70, 0.00, 0.00, 0.00, 0.00, 0.00, 0.00, -24251.73, 0.00, 0.00, 0.00, 0.00, 0.00, 0.00, 0.00, 0.00, 0.00, 0.000, 0.000, 0.000, 15:21:05.773
71, 0.00, 0.00, 0.00, 0.00, 0.00, 0.00, -24611.46, 0.00, 0.00, 0.00, 0.00, 0.00, 0.00, 0.00, 0.00, 0.00, 0.000, 0.000, 0.000, 15:21:05.773
72, 0.00, 0.00, 0.00, 0.00, 0.00, 0.00, -24289.21, 0.00, 0.00, 0.00, 0.00, 0.00, 0.00, 0.00, 0.00, 0.00, 0.000, 0.000, 0.000, 15:21:05.773
73, 0.00, 0.00, 0.00, 0.00, 0.00, 0.00, -24561.13, 0.00, 0.00, 0.00, 0.00, 0.00, 0.00, 0.00, 0.00, 0.00, 0.000, 0.000, 0.000, 15:21:05.773
74, 0.00, 0.00, 0.00, 0.00, 0.00, 0.00, -24319.86, 0.00, 0.00, 0.00, 0.00, 0.00, 0.00, 0.00, 0.00, 0.00, 0.000, 0.000, 0.000, 15:21:05.773
75, 0.00, 0.00, 0.00, 0.00, 0.00, 0.00, -24512.46, 0.00, 0.00, 0.00, 0.00, 0.00, 0.00, 0.00, 0.00, 0.00, 0.000, 0.000, 0.000, 15:21:05.773
76, 0.00, 0.00, 0.00, 0.00, 0.00, 0.00, -24405.71, 0.00, 0.00, 0.00, 0.00, 0.00, 0.00, 0.00, 0.00, 0.00, 0.000, 0.000, 0.000, 15:21:05.774
77, 0.00, 0.00, 0.00, 0.00, 0.00, 0.00, -24455.31, 0.00, 0.00, 0.00, 0.00, 0.00, 0.00, 0.00, 0.00, 0.00, 0.000, 0.000, 0.000, 15:21:05.774
78, 0.00, 0.00, 0.00, 0.00, 0.00, 0.00, -24468.95, 0.00, 0.00, 0.00, 0.00, 0.00, 0.00, 0.00, 0.00, 0.00, 0.000, 0.000, 0.000, 15:21:05.774
79, 0.00, 0.00, 0.00, 0.00, 0.00, 0.00, -24417.45, 0.00, 0.00, 0.00, 0.00, 0.00, 0.00, 0.00, 0.00, 0.00, 0.000, 0.000, 0.000, 15:21:05.774
80, 0.00, 0.00, 0.00, 0.00, 0.00, 0.00, -24524.71, 0.00, 0.00, 0.00, 0.00, 0.00, 0.00, 0.00, 0.00, 0.00, 0.000, 0.000, 0.000, 15:21:05.774
81, 0.00, 0.00, 0.00, 0.00, 0.00, 0.00, -24373.71, 0.00, 0.00, 0.00, 0.00, 0.00, 0.00, 0.00, 0.00, 0.00, 0.000, 0.000, 0.000, 15:21:05.774
82, 0.00, 0.00, 0.00, 0.00, 0.00, 0.00, -24589.53, 0.00, 0.00, 0.00, 0.00, 0.00, 0.00, 0.00, 0.00, 0.00, 0.000, 0.000, 0.000, 15:21:05.775
83, 0.00, 0.00, 0.00, 0.00, 0.00, 0.00, -24339.19, 0.00, 0.00, 0.00, 0.00, 0.00, 0.00, 0.00, 0.00, 0.00, 0.000, 0.000, 0.000, 15:21:05.775
84, 0.00, 0.00, 0.00, 0.00, 0.00, 0.00, -24631.26, 0.00, 0.00, 0.00, 0.00, 0.00, 0.00, 0.00, 0.00, 0.00, 0.000, 0.000, 0.000, 15:21:05.775
85, 0.00, 0.00, 0.00, 0.00, 0.00, 0.00, -24316.78, 0.00, 0.00, 0.00, 0.00, 0.00, 0.00, 0.00, 0.00, 0.00, 0.000, 0.000, 0.000, 15:21:05.775
86, 0.00, 0.00, 0.00, 0.00, 0.00, 0.00, -24681.62, 0.00, 0.00, 0.00, 0.00, 0.00, 0.00, 0.00, 0.00, 0.00, 0.000, 0.000, 0.000, 15:21:05.775
87, 0.00, 0.00, 0.00, 0.00, 0.00, 0.00, -24282.22, 0.00, 0.00, 0.00, 0.00, 0.00, 0.00, 0.00, 0.00, 0.00, 0.000, 0.000, 0.000, 15:21:05.775
88, 0.00, 0.00, 0.00, 0.00, 0.00, 0.00, -24698.63, 0.00, 0.00, 0.00, 0.00, 0.00, 0.00, 0.00, 0.00, 0.00, 0.000, 0.000, 0.000, 15:21:05.775
89, 0.00, 0.00, 0.00, 0.00, 0.00, 0.00, -24275.98, 0.00, 0.00, 0.00, 0.00, 0.00, 0.00, 0.00, 0.00, 0.00, 0.000, 0.000, 0.000, 15:21:05.775
90, 0.00, 0.00, 0.00, 0.00, 0.00, 0.00, -24700.55, 0.00, 0.00, 0.00, 0.00, 0.00, 0.00, 0.00, 0.00, 0.00, 0.000, 0.000, 0.000, 15:21:06.251
91, 0.00, 0.00, 0.00, 0.00, 0.00, 0.00, -24266.71, 0.00, 0.00, 0.00, 0.00, 0.00, 0.00, 0.00, 0.00, 0.00, 0.000, 0.000, 0.000, 15:21:06.251
92, 0.00, 0.00, 0.00, 0.00, 0.00, 0.00, -24702.97, 0.00, 0.00, 0.00, 0.00, 0.00, 0.00, 0.00, 0.00, 0.00, 0.000, 0.000, 0.000, 15:21:06.252
93, 0.00, 0.00, 0.00, 0.00, 0.00, 0.00, -24291.85, 0.00, 0.00, 0.00, 0.00, 0.00, 0.00, 0.00, 0.00, 0.00, 0.000, 0.000, 0.000, 15:21:06.252
94, 0.00, 0.00, 0.00, 0.00, 0.00, 0.00, -24680.04, 0.00, 0.00, 0.00, 0.00, 0.00, 0.00, 0.00, 0.00, 0.00, 0.000, 0.000, 0.000, 15:21:06.252
95, 0.00, 0.00, 0.00, 0.00, 0.00, 0.00, -24328.33, 0.00, 0.00, 0.00, 0.00, 0.00, 0.00, 0.00, 0.00, 0.00, 0.000, 0.000, 0.000, 15:21:06.253
96, 0.00, 0.00, 0.00, 0.00, 0.00, 0.00, -24651.74, 0.00, 0.00, 0.00, 0.00, 0.00, 0.00, 0.00, 0.00, 0.00, 0.000, 0.000, 0.000, 15:21:06.253
97, 0.00, 0.00, 0.00, 0.00, 0.00, 0.00, -24378.13, 0.00, 0.00, 0.00, 0.00, 0.00, 0.00, 0.00, 0.00, 0.00, 0.000, 0.000, 0.000, 15:21:06.254
98, 0.00, 0.00, 0.00, 0.00, 0.00, 0.00, -24631.85, 0.00, 0.00, 0.00, 0.00, 0.00, 0.00, 0.00, 0.00, 0.00, 0.000, 0.000, 0.000, 15:21:06.254
99, 0.00, 0.00, 0.00, 0.00, 0.00, 0.00, -24426.19, 0.00, 0.00, 0.00, 0.00, 0.00, 0.00, 0.00, 0.00, 0.00, 0.000, 0.000, 0.000, 15:21:06.255
100, 0.00, 0.00, 0.00, 0.00, 0.00, 0.00, -24575.32, 0.00, 0.00, 0.00, 0.00, 0.00, 0.00, 0.00, 0.00, 0.00, 0.000, 0.000, 0.000, 15:21:06.255
101, 0.00, 0.00, 0.00, 0.00, 0.00, 0.00, -24481.02, 0.00, 0.00, 0.00, 0.00, 0.00, 0.00, 0.00, 0.00, 0.00, 0.000, 0.000, 0.000, 15:21:06.256
102, 0.00, 0.00, 0.00, 0.00, 0.00, 0.00, -24536.34, 0.00, 0.00, 0.00, 0.00, 0.00, 0.00, 0.00, 0.00, 0.00, 0.000, 0.000, 0.000, 15:21:06.256
103, 0.00, 0.00, 0.00, 0.00, 0.00, 0.00, -24547.31, 0.00, 0.00, 0.00, 0.00, 0.00, 0.00, 0.00, 0.00, 0.00, 0.000, 0.000, 0.000, 15:21:06.257
104, 0.00, 0.00, 0.00, 0.00, 0.00, 0.00, -24485.71, 0.00, 0.00, 0.00, 0.00, 0.00, 0.00, 0.00, 0.00, 0.00, 0.000, 0.000, 0.000, 15:21:06.257
105, 0.00, 0.00, 0.00, 0.00, 0.00, 0.00, -24596.64, 0.00, 0.00, 0.00, 0.00, 0.00, 0.00, 0.00, 0.00, 0.00, 0.000, 0.000, 0.000, 15:21:06.257
106, 0.00, 0.00, 0.00, 0.00, 0.00, 0.00, -24435.31, 0.00, 0.00, 0.00, 0.00, 0.00, 0.00, 0.00, 0.00, 0.00, 0.000, 0.000, 0.000, 15:21:06.258
107, 0.00, 0.00, 0.00, 0.00, 0.00, 0.00, -24655.72, 0.00, 0.00, 0.00, 0.00, 0.00, 0.00, 0.00, 0.00, 0.00, 0.000, 0.000, 0.000, 15:21:06.258
108, 0.00, 0.00, 0.00, 0.00, 0.00, 0.00, -24401.33, 0.00, 0.00, 0.00, 0.00, 0.00, 0.00, 0.00, 0.00, 0.00, 0.000, 0.000, 0.000, 15:21:06.258
109, 0.00, 0.00, 0.00, 0.00, 0.00, 0.00, -24694.90, 0.00, 0.00, 0.00, 0.00, 0.00, 0.00, 0.00, 0.00, 0.00, 0.000, 0.000, 0.000, 15:21:06.259
110, 0.00, 0.00, 0.00, 0.00, 0.00, 0.00, -24379.79, 0.00, 0.00, 0.00, 0.00, 0.00, 0.00, 0.00, 0.00, 0.00, 0.000, 0.000, 0.000, 15:21:06.259
111, 0.00, 0.00, 0.00, 0.00, 0.00, 0.00, -24735.56, 0.00, 0.00, 0.00, 0.00, 0.00, 0.00, 0.00, 0.00, 0.00, 0.000, 0.000, 0.000, 15:21:06.259
112, 0.00, 0.00, 0.00, 0.00, 0.00, 0.00, -24370.58, 0.00, 0.00, 0.00, 0.00, 0.00, 0.00, 0.00, 0.00, 0.00, 0.000, 0.000, 0.000, 15:21:06.259
113, 0.00, 0.00, 0.00, 0.00, 0.00, 0.00, -24766.31, 0.00, 0.00, 0.00, 0.00, 0.00, 0.00, 0.00, 0.00, 0.00, 0.000, 0.000, 0.000, 15:21:06.260
114, 0.00, 0.00, 0.00, 0.00, 0.00, 0.00, -24357.59, 0.00, 0.00, 0.00, 0.00, 0.00, 0.00, 0.00, 0.00, 0.00, 0.000, 0.000, 0.000, 15:21:06.260
115, 0.00, 0.00, 0.00, 0.00, 0.00, 0.00, -24785.96, 0.00, 0.00, 0.00, 0.00, 0.00, 0.00, 0.00, 0.00, 0.00, 0.000, 0.000, 0.000, 15:21:06.260
116, 0.00, 0.00, 0.00, 0.00, 0.00, 0.00, -24379.83, 0.00, 0.00, 0.00, 0.00, 0.00, 0.00, 0.00, 0.00, 0.00, 0.000, 0.000, 0.000, 15:21:06.261
117, 0.00, 0.00, 0.00, 0.00, 0.00, 0.00, -24788.96, 0.00, 0.00, 0.00, 0.00, 0.00, 0.00, 0.00, 0.00, 0.00, 0.000, 0.000, 0.000, 15:21:06.261
118, 0.00, 0.00, 0.00, 0.00, 0.00, 0.00, -24390.33, 0.00, 0.00, 0.00, 0.00, 0.00, 0.00, 0.00, 0.00, 0.00, 0.000, 0.000, 0.000, 15:21:06.261
119, 0.00, 0.00, 0.00, 0.00, 0.00, 0.00, -24747.74, 0.00, 0.00, 0.00, 0.00, 0.00, 0.00, 0.00, 0.00, 0.00, 0.000, 0.000, 0.000, 15:21:06.262
120, 0.00, 0.00, 0.00, 0.00, 0.00, 0.00, -24413.33, 0.00, 0.00, 0.00, 0.00, 0.00, 0.00, 0.00, 0.00, 0.00, 0.000, 0.000, 0.000, 15:21:06.262
121, 0.00, 0.00, 0.00, 0.00, 0.00, 0.00, -24715.69, 0.00, 0.00, 0.00, 0.00, 0.00, 0.00, 0.00, 0.00, 0.00, 0.000, 0.000, 0.000, 15:21:06.262
122, 0.00, 0.00, 0.00, 0.00, 0.00, 0.00, -24460.12, 0.00, 0.00, 0.00, 0.00, 0.00, 0.00, 0.00, 0.00, 0.00, 0.000, 0.000, 0.000, 15:21:06.262
123, 0.00, 0.00, 0.00, 0.00, 0.00, 0.00, -24684.95, 0.00, 0.00, 0.00, 0.00, 0.00, 0.00, 0.00, 0.00, 0.00, 0.000, 0.000, 0.000, 15:21:06.263
124, 0.00, 0.00, 0.00, 0.00, 0.00, 0.00, -24514.16, 0.00, 0.00, 0.00, 0.00, 0.00, 0.00, 0.00, 0.00, 0.00, 0.000, 0.000, 0.000, 15:21:06.263
125, 0.00, 0.00, 0.00, 0.00, 0.00, 0.00, -24642.57, 0.00, 0.00, 0.00, 0.00, 0.00, 0.00, 0.00, 0.00, 0.00, 0.000, 0.000, 0.000, 15:21:06.264
126, 0.00, 0.00, 0.00, 0.00, 0.00, 0.00, -24570.24, 0.00, 0.00, 0.00, 0.00, 0.00, 0.00, 0.00, 0.00, 0.00, 0.000, 0.000, 0.000, 15:21:06.264
127, 0.00, 0.00, 0.00, 0.00, 0.00, 0.00, -24604.69, 0.00, 0.00, 0.00, 0.00, 0.00, 0.00, 0.00, 0.00, 0.00, 0.000, 0.000, 0.000, 15:21:06.265
0, 0.00, 0.00, 0.00, 0.00, 0.00, 0.00, -24626.17, 0.00, 0.00, 0.00, 0.00, 0.00, 0.00, 0.00, 0.00, 0.00, 0.000, 0.000, 0.000, 15:21:06.265
1, 0.00, 0.00, 0.00, 0.00, 0.00, 0.00, -24565.57, 0.00, 0.00, 0.00, 0.00, 0.00, 0.00, 0.00, 0.00, 0.00, 0.000, 0.000, 0.000, 15:21:06.265
2, 0.00, 0.00, 0.00, 0.00, 0.00, 0.00, -24690.70, 0.00, 0.00, 0.00, 0.00, 0.00, 0.00, 0.00, 0.00, 0.00, 0.000, 0.000, 0.000, 15:21:06.265
3, 0.00, 0.00, 0.00, 0.00, 0.00, 0.00, -24525.43, 0.00, 0.00, 0.00, 0.00, 0.00, 0.00, 0.00, 0.00, 0.00, 0.000, 0.000, 0.000, 15:21:06.266
4, 0.00, 0.00, 0.00, 0.00, 0.00, 0.00, -24740.23, 0.00, 0.00, 0.00, 0.00, 0.00, 0.00, 0.00, 0.00, 0.00, 0.000, 0.000, 0.000, 15:21:06.266
5, 0.00, 0.00, 0.00, 0.00, 0.00, 0.00, -24484.41, 0.00, 0.00, 0.00, 0.00, 0.00, 0.00, 0.00, 0.00, 0.00, 0.000, 0.000, 0.000, 15:21:06.266
6, 0.00, 0.00, 0.00, 0.00, 0.00, 0.00, -24773.58, 0.00, 0.00, 0.00, 0.00, 0.00, 0.00, 0.00, 0.00, 0.00, 0.000, 0.000, 0.000, 15:21:06.266
7, 0.00, 0.00, 0.00, 0.00, 0.00, 0.00, -24464.16, 0.00, 0.00, 0.00, 0.00, 0.00, 0.00, 0.00, 0.00, 0.00, 0.000, 0.000, 0.000, 15:21:06.267
8, 0.00, 0.00, 0.00, 0.00, 0.00, 0.00, -24798.77, 0.00, 0.00, 0.00, 0.00, 0.00, 0.00, 0.00, 0.00, 0.00, 0.000, 0.000, 0.000, 15:21:06.267
9, 0.00, 0.00, 0.00, 0.00, 0.00, 0.00, -24441.72, 0.00, 0.00, 0.00, 0.00, 0.00, 0.00, 0.00, 0.00, 0.00, 0.000, 0.000, 0.000, 15:21:06.267
10, 0.00, 0.00, 0.00, 0.00, 0.00, 0.00, -24830.24, 0.00, 0.00, 0.00, 0.00, 0.00, 0.00, 0.00, 0.00, 0.00, 0.000, 0.000, 0.000, 15:21:06.267
11, 0.00, 0.00, 0.00, 0.00, 0.00, 0.00, -24444.54, 0.00, 0.00, 0.00, 0.00, 0.00, 0.00, 0.00, 0.00, 0.00, 0.000, 0.000, 0.000, 15:21:06.268
12, 0.00, 0.00, 0.00, 0.00, 0.00, 0.00, -24838.96, 0.00, 0.00, 0.00, 0.00, 0.00, 0.00, 0.00, 0.00, 0.00, 0.000, 0.000, 0.000, 15:21:06.268
13, 0.00, 0.00, 0.00, 0.00, 0.00, 0.00, -24448.70, 0.00, 0.00, 0.00, 0.00, 0.00, 0.00, 0.00, 0.00, 0.00, 0.000, 0.000, 0.000, 15:21:06.268
14, 0.00, 0.00, 0.00, 0.00, 0.00, 0.00, -24818.06, 0.00, 0.00, 0.00, 0.00, 0.00, 0.00, 0.00, 0.00, 0.00, 0.000, 0.000, 0.000, 15:21:06.268
15, 0.00, 0.00, 0.00, 0.00, 0.00, 0.00, -24482.56, 0.00, 0.00, 0.00, 0.00, 0.00, 0.00, 0.00, 0.00, 0.00, 0.000, 0.000, 0.000, 15:21:06.269
16, 0.00, 0.00, 0.00, 0.00, 0.00, 0.00, -24808.54, 0.00, 0.00, 0.00, 0.00, 0.00, 0.00, 0.00, 0.00, 0.00, 0.000, 0.000, 0.000, 15:21:06.269
17, 0.00, 0.00, 0.00, 0.00, 0.00, 0.00, -24500.51, 0.00, 0.00, 0.00, 0.00, 0.00, 0.00, 0.00, 0.00, 0.00, 0.000, 0.000, 0.000, 15:21:06.269
18, 0.00, 0.00, 0.00, 0.00, 0.00, 0.00, -24763.32, 0.00, 0.00, 0.00, 0.00, 0.00, 0.00, 0.00, 0.00, 0.00, 0.000, 0.000, 0.000, 15:21:06.269
19, 0.00, 0.00, 0.00, 0.00, 0.00, 0.00, -24553.55, 0.00, 0.00, 0.00, 0.00, 0.00, 0.00, 0.00, 0.00, 0.00, 0.000, 0.000, 0.000, 15:21:06.270
20, 0.00, 0.00, 0.00, 0.00, 0.00, 0.00, -24738.98, 0.00, 0.00, 0.00, 0.00, 0.00, 0.00, 0.00, 0.00, 0.00, 0.000, 0.000, 0.000, 15:21:06.270
21, 0.00, 0.00, 0.00, 0.00, 0.00, 0.00, -24593.94, 0.00, 0.00, 0.00, 0.00, 0.00, 0.00, 0.00, 0.00, 0.00, 0.000, 0.000, 0.000, 15:21:06.270
22, 0.00, 0.00, 0.00, 0.00, 0.00, 0.00, -24693.27, 0.00, 0.00, 0.00, 0.00, 0.00, 0.00, 0.00, 0.00, 0.00, 0.000, 0.000, 0.000, 15:21:06.730
23, 0.00, 0.00, 0.00, 0.00, 0.00, 0.00, -24646.49, 0.00, 0.00, 0.00, 0.00, 0.00, 0.00, 0.00, 0.00, 0.00, 0.000, 0.000, 0.000, 15:21:06.730
24, 0.00, 0.00, 0.00, 0.00, 0.00, 0.00, -24655.43, 0.00, 0.00, 0.00, 0.00, 0.00, 0.00, 0.00, 0.00, 0.00, 0.000, 0.000, 0.000, 15:21:06.731
25, 0.00, 0.00, 0.00, 0.00, 0.00, 0.00, -24717.79, 0.00, 0.00, 0.00, 0.00, 0.00, 0.00, 0.00, 0.00, 0.00, 0.000, 0.000, 0.000, 15:21:06.731
26, 0.00, 0.00, 0.00, 0.00, 0.00, 0.00, -24609.67, 0.00, 0.00, 0.00, 0.00, 0.00, 0.00, 0.00, 0.00, 0.00, 0.000, 0.000, 0.000, 15:21:06.731
27, 0.00, 0.00, 0.00, 0.00, 0.00, 0.00, -24764.28, 0.00, 0.00, 0.00, 0.00, 0.00, 0.00, 0.00, 0.00, 0.00, 0.000, 0.000, 0.000, 15:21:06.731
28, 0.00, 0.00, 0.00, 0.00, 0.00, 0.00, -24580.39, 0.00, 0.00, 0.00, 0.00, 0.00, 0.00, 0.00, 0.00, 0.00, 0.000, 0.000, 0.000, 15:21:06.731
29, 0.00, 0.00, 0.00, 0.00, 0.00, 0.00, -24812.49, 0.00, 0.00, 0.00, 0.00, 0.00, 0.00, 0.00, 0.00, 0.00, 0.000, 0.000, 0.000, 15:21:06.731
30, 0.00, 0.00, 0.00, 0.00, 0.00, 0.00, -24547.36, 0.00, 0.00, 0.00, 0.00, 0.00, 0.00, 0.00, 0.00, 0.00, 0.000, 0.000, 0.000, 15:21:06.731
31, 0.00, 0.00, 0.00, 0.00, 0.00, 0.00, -24851.12, 0.00, 0.00, 0.00, 0.00, 0.00, 0.00, 0.00, 0.00, 0.00, 0.000, 0.000, 0.000, 15:21:06.732
32, 0.00, 0.00, 0.00, 0.00, 0.00, 0.00, -24524.13, 0.00, 0.00, 0.00, 0.00, 0.00, 0.00, 0.00, 0.00, 0.00, 0.000, 0.000, 0.000, 15:21:06.732
33, 0.00, 0.00, 0.00, 0.00, 0.00, 0.00, -24880.73, 0.00, 0.00, 0.00, 0.00, 0.00, 0.00, 0.00, 0.00, 0.00, 0.000, 0.000, 0.000, 15:21:06.732
34, 0.00, 0.00, 0.00, 0.00, 0.00, 0.00, -24538.77, 0.00, 0.00, 0.00, 0.00, 0.00, 0.00, 0.00, 0.00, 0.00, 0.000, 0.000, 0.000, 15:21:06.732
35, 0.00, 0.00, 0.00, 0.00, 0.00, 0.00, -24920.58, 0.00, 0.00, 0.00, 0.00, 0.00, 0.00, 0.00, 0.00, 0.00, 0.000, 0.000, 0.000, 15:21:06.732
36, 0.00, 0.00, 0.00, 0.00, 0.00, 0.00, -24536.65, 0.00, 0.00, 0.00, 0.00, 0.00, 0.00, 0.00, 0.00, 0.00, 0.000, 0.000, 0.000, 15:21:06.732
37, 0.00, 0.00, 0.00, 0.00, 0.00, 0.00, -24905.36, 0.00, 0.00, 0.00, 0.00, 0.00, 0.00, 0.00, 0.00, 0.00, 0.000, 0.000, 0.000, 15:21:06.733
38, 0.00, 0.00, 0.00, 0.00, 0.00, 0.00, -24516.46, 0.00, 0.00, 0.00, 0.00, 0.00, 0.00, 0.00, 0.00, 0.00, 0.000, 0.000, 0.000, 15:21:06.733
39, 0.00, 0.00, 0.00, 0.00, 0.00, 0.00, -24885.02, 0.00, 0.00, 0.00, 0.00, 0.00, 0.00, 0.00, 0.00, 0.00, 0.000, 0.000, 0.000, 15:21:06.733
40, 0.00, 0.00, 0.00, 0.00, 0.00, 0.00, -24545.08, 0.00, 0.00, 0.00, 0.00, 0.00, 0.00, 0.00, 0.00, 0.00, 0.000, 0.000, 0.000, 15:21:06.733
41, 0.00, 0.00, 0.00, 0.00, 0.00, 0.00, -24853.51, 0.00, 0.00, 0.00, 0.00, 0.00, 0.00, 0.00, 0.00, 0.00, 0.000, 0.000, 0.000, 15:21:06.733
42, 0.00, 0.00, 0.00, 0.00, 0.00, 0.00, -24583.83, 0.00, 0.00, 0.00, 0.00, 0.00, 0.00, 0.00, 0.00, 0.00, 0.000, 0.000, 0.000, 15:21:06.733
43, 0.00, 0.00, 0.00, 0.00, 0.00, 0.00, -24833.44, 0.00, 0.00, 0.00, 0.00, 0.00, 0.00, 0.00, 0.00, 0.00, 0.000, 0.000, 0.000, 15:21:06.734
44, 0.00, 0.00, 0.00, 0.00, 0.00, 0.00, -24638.53, 0.00, 0.00, 0.00, 0.00, 0.00, 0.00, 0.00, 0.00, 0.00, 0.000, 0.000, 0.000, 15:21:06.734
45, 0.00, 0.00, 0.00, 0.00, 0.00, 0.00, -24781.71, 0.00, 0.00, 0.00, 0.00, 0.00, 0.00, 0.00, 0.00, 0.00, 0.000, 0.000, 0.000, 15:21:06.734
46, 0.00, 0.00, 0.00, 0.00, 0.00, 0.00, -24668.32, 0.00, 0.00, 0.00, 0.00, 0.00, 0.00, 0.00, 0.00, 0.00, 0.000, 0.000, 0.000, 15:21:06.734
47, 0.00, 0.00, 0.00, 0.00, 0.00, 0.00, -24747.52, 0.00, 0.00, 0.00, 0.00, 0.00, 0.00, 0.00, 0.00, 0.00, 0.000, 0.000, 0.000, 15:21:06.734
48, 0.00, 0.00, 0.00, 0.00, 0.00, 0.00, -24737.23, 0.00, 0.00, 0.00, 0.00, 0.00, 0.00, 0.00, 0.00, 0.00, 0.000, 0.000, 0.000, 15:21:06.735
49, 0.00, 0.00, 0.00, 0.00, 0.00, 0.00, -24699.28, 0.00, 0.00, 0.00, 0.00, 0.00, 0.00, 0.00, 0.00, 0.00, 0.000, 0.000, 0.000, 15:21:06.735
50, 0.00, 0.00, 0.00, 0.00, 0.00, 0.00, -24788.60, 0.00, 0.00, 0.00, 0.00, 0.00, 0.00, 0.00, 0.00, 0.00, 0.000, 0.000, 0.000, 15:21:06.735
51, 0.00, 0.00, 0.00, 0.00, 0.00, 0.00, -24663.00, 0.00, 0.00, 0.00, 0.00, 0.00, 0.00, 0.00, 0.00, 0.00, 0.000, 0.000, 0.000, 15:21:06.735
52, 0.00, 0.00, 0.00, 0.00, 0.00, 0.00, -24830.55, 0.00, 0.00, 0.00, 0.00, 0.00, 0.00, 0.00, 0.00, 0.00, 0.000, 0.000, 0.000, 15:21:06.735
53, 0.00, 0.00, 0.00, 0.00, 0.00, 0.00, -24626.12, 0.00, 0.00, 0.00, 0.00, 0.00, 0.00, 0.00, 0.00, 0.00, 0.000, 0.000, 0.000, 15:21:06.735
54, 0.00, 0.00, 0.00, 0.00, 0.00, 0.00, -24865.02, 0.00, 0.00, 0.00, 0.00, 0.00, 0.00, 0.00, 0.00, 0.00, 0.000, 0.000, 0.000, 15:21:06.735
55, 0.00, 0.00, 0.00, 0.00, 0.00, 0.00, -24579.77, 0.00, 0.00, 0.00, 0.00, 0.00, 0.00, 0.00, 0.00, 0.00, 0.000, 0.000, 0.000, 15:21:06.735
56, 0.00, 0.00, 0.00, 0.00, 0.00, 0.00, -24883.21, 0.00, 0.00, 0.00, 0.00, 0.00, 0.00, 0.00, 0.00, 0.00, 0.000, 0.000, 0.000, 15:21:06.736
57, 0.00, 0.00, 0.00, 0.00, 0.00, 0.00, -24556.81, 0.00, 0.00, 0.00, 0.00, 0.00, 0.00, 0.00, 0.00, 0.00, 0.000, 0.000, 0.000, 15:21:06.736
58, 0.00, 0.00, 0.00, 0.00, 0.00, 0.00, -24895.46, 0.00, 0.00, 0.00, 0.00, 0.00, 0.00, 0.00, 0.00, 0.00, 0.000, 0.000, 0.000, 15:21:06.736
59, 0.00, 0.00, 0.00, 0.00, 0.00, 0.00, -24551.56, 0.00, 0.00, 0.00, 0.00, 0.00, 0.00, 0.00, 0.00, 0.00, 0.000, 0.000, 0.000, 15:21:06.736
60, 0.00, 0.00, 0.00, 0.00, 0.00, 0.00, -24910.44, 0.00, 0.00, 0.00, 0.00, 0.00, 0.00, 0.00, 0.00, 0.00, 0.000, 0.000, 0.000, 15:21:06.736
61, 0.00, 0.00, 0.00, 0.00, 0.00, 0.00, -24536.04, 0.00, 0.00, 0.00, 0.00, 0.00, 0.00, 0.00, 0.00, 0.00, 0.000, 0.000, 0.000, 15:21:06.736
62, 0.00, 0.00, 0.00, 0.00, 0.00, 0.00, -24905.83, 0.00, 0.00, 0.00, 0.00, 0.00, 0.00, 0.00, 0.00, 0.00, 0.000, 0.000, 0.000, 15:21:06.736
63, 0.00, 0.00, 0.00, 0.00, 0.00, 0.00, -24556.86, 0.00, 0.00, 0.00, 0.00, 0.00, 0.00, 0.00, 0.00, 0.00, 0.000, 0.000, 0.000, 15:21:06.737
64, 0.00, 0.00, 0.00, 0.00, 0.00, 0.00, -24894.28, 0.00, 0.00, 0.00, 0.00, 0.00, 0.00, 0.00, 0.00, 0.00, 0.000, 0.000, 0.000, 15:21:06.737
65, 0.00, 0.00, 0.00, 0.00, 0.00, 0.00, -24584.95, 0.00, 0.00, 0.00, 0.00, 0.00, 0.00, 0.00, 0.00, 0.00, 0.000, 0.000, 0.000, 15:21:06.737
66, 0.00, 0.00, 0.00, 0.00, 0.00, 0.00, -24879.73, 0.00, 0.00, 0.00, 0.00, 0.00, 0.00, 0.00, 0.00, 0.00, 0.000, 0.000, 0.000, 15:21:06.738
67, 0.00, 0.00, 0.00, 0.00, 0.00, 0.00, -24603.17, 0.00, 0.00, 0.00, 0.00, 0.00, 0.00, 0.00, 0.00, 0.00, 0.000, 0.000, 0.000, 15:21:06.738
68, 0.00, 0.00, 0.00, 0.00, 0.00, 0.00, -24847.74, 0.00, 0.00, 0.00, 0.00, 0.00, 0.00, 0.00, 0.00, 0.00, 0.000, 0.000, 0.000, 15:21:06.738
69, 0.00, 0.00, 0.00, 0.00, 0.00, 0.00, -24664.77, 0.00, 0.00, 0.00, 0.00, 0.00, 0.00, 0.00, 0.00, 0.00, 0.000, 0.000, 0.000, 15:21:06.738
70, 0.00, 0.00, 0.00, 0.00, 0.00, 0.00, -24820.65, 0.00, 0.00, 0.00, 0.00, 0.00, 0.00, 0.00, 0.00, 0.00, 0.000, 0.000, 0.000, 15:21:06.738
71, 0.00, 0.00, 0.00, 0.00, 0.00, 0.00, -24720.02, 0.00, 0.00, 0.00, 0.00, 0.00, 0.00, 0.00, 0.00, 0.00, 0.000, 0.000, 0.000, 15:21:06.738
72, 0.00, 0.00, 0.00, 0.00, 0.00, 0.00, -24772.06, 0.00, 0.00, 0.00, 0.00, 0.00, 0.00, 0.00, 0.00, 0.00, 0.000, 0.000, 0.000, 15:21:06.738
73, 0.00, 0.00, 0.00, 0.00, 0.00, 0.00, -24765.91, 0.00, 0.00, 0.00, 0.00, 0.00, 0.00, 0.00, 0.00, 0.00, 0.000, 0.000, 0.000, 15:21:06.739
74, 0.00, 0.00, 0.00, 0.00, 0.00, 0.00, -24734.39, 0.00, 0.00, 0.00, 0.00, 0.00, 0.00, 0.00, 0.00, 0.00, 0.000, 0.000, 0.000, 15:21:06.739
75, 0.00, 0.00, 0.00, 0.00, 0.00, 0.00, -24821.37, 0.00, 0.00, 0.00, 0.00, 0.00, 0.00, 0.00, 0.00, 0.00, 0.000, 0.000, 0.000, 15:21:06.739
76, 0.00, 0.00, 0.00, 0.00, 0.00, 0.00, -24698.63, 0.00, 0.00, 0.00, 0.00, 0.00, 0.00, 0.00, 0.00, 0.00, 0.000, 0.000, 0.000, 15:21:06.739
77, 0.00, 0.00, 0.00, 0.00, 0.00, 0.00, -24860.46, 0.00, 0.00, 0.00, 0.00, 0.00, 0.00, 0.00, 0.00, 0.00, 0.000, 0.000, 0.000, 15:21:06.739
78, 0.00, 0.00, 0.00, 0.00, 0.00, 0.00, -24651.92, 0.00, 0.00, 0.00, 0.00, 0.00, 0.00, 0.00, 0.00, 0.00, 0.000, 0.000, 0.000, 15:21:06.739
79, 0.00, 0.00, 0.00, 0.00, 0.00, 0.00, -24912.07, 0.00, 0.00, 0.00, 0.00, 0.00, 0.00, 0.00, 0.00, 0.00, 0.000, 0.000, 0.000, 15:21:06.739
80, 0.00, 0.00, 0.00, 0.00, 0.00, 0.00, -24624.51, 0.00, 0.00, 0.00, 0.00, 0.00, 0.00, 0.00, 0.00, 0.00, 0.000, 0.000, 0.000, 15:21:06.739
81, 0.00, 0.00, 0.00, 0.00, 0.00, 0.00, -24937.93, 0.00, 0.00, 0.00, 0.00, 0.00, 0.00, 0.00, 0.00, 0.00, 0.000, 0.000, 0.000, 15:21:06.739
82, 0.00, 0.00, 0.00, 0.00, 0.00, 0.00, -24593.29, 0.00, 0.00, 0.00, 0.00, 0.00, 0.00, 0.00, 0.00, 0.00, 0.000, 0.000, 0.000, 15:21:07.212
83, 0.00, 0.00, 0.00, 0.00, 0.00, 0.00, -24957.71, 0.00, 0.00, 0.00, 0.00, 0.00, 0.00, 0.00, 0.00, 0.00, 0.000, 0.000, 0.000, 15:21:07.212
84, 0.00, 0.00, 0.00, 0.00, 0.00, 0.00, -24604.69, 0.00, 0.00, 0.00, 0.00, 0.00, 0.00, 0.00, 0.00, 0.00, 0.000, 0.000, 0.000, 15:21:07.212
85, 0.00, 0.00, 0.00, 0.00, 0.00, 0.00, -24972.62, 0.00, 0.00, 0.00, 0.00, 0.00, 0.00, 0.00, 0.00, 0.00, 0.000, 0.000, 0.000, 15:21:07.212
86, 0.00, 0.00, 0.00, 0.00, 0.00, 0.00, -24602.27, 0.00, 0.00, 0.00, 0.00, 0.00, 0.00, 0.00, 0.00, 0.00, 0.000, 0.000, 0.000, 15:21:07.212
87, 0.00, 0.00, 0.00, 0.00, 0.00, 0.00, -24970.45, 0.00, 0.00, 0.00, 0.00, 0.00, 0.00, 0.00, 0.00, 0.00, 0.000, 0.000, 0.000, 15:21:07.212
88, 0.00, 0.00, 0.00, 0.00, 0.00, 0.00, -24609.13, 0.00, 0.00, 0.00, 0.00, 0.00, 0.00, 0.00, 0.00, 0.00, 0.000, 0.000, 0.000, 15:21:07.213
89, 0.00, 0.00, 0.00, 0.00, 0.00, 0.00, -24950.80, 0.00, 0.00, 0.00, 0.00, 0.00, 0.00, 0.00, 0.00, 0.00, 0.000, 0.000, 0.000, 15:21:07.213
90, 0.00, 0.00, 0.00, 0.00, 0.00, 0.00, -24642.24, 0.00, 0.00, 0.00, 0.00, 0.00, 0.00, 0.00, 0.00, 0.00, 0.000, 0.000, 0.000, 15:21:07.213
91, 0.00, 0.00, 0.00, 0.00, 0.00, 0.00, -24929.35, 0.00, 0.00, 0.00, 0.00, 0.00, 0.00, 0.00, 0.00, 0.00, 0.000, 0.000, 0.000, 15:21:07.213
92, 0.00, 0.00, 0.00, 0.00, 0.00, 0.00, -24662.29, 0.00, 0.00, 0.00, 0.00, 0.00, 0.00, 0.00, 0.00, 0.00, 0.000, 0.000, 0.000, 15:21:07.213
93, 0.00, 0.00, 0.00, 0.00, 0.00, 0.00, -24894.19, 0.00, 0.00, 0.00, 0.00, 0.00, 0.00, 0.00, 0.00, 0.00, 0.000, 0.000, 0.000, 15:21:07.213
94, 0.00, 0.00, 0.00, 0.00, 0.00, 0.00, -24723.89, 0.00, 0.00, 0.00, 0.00, 0.00, 0.00, 0.00, 0.00, 0.00, 0.000, 0.000, 0.000, 15:21:07.213
95, 0.00, 0.00, 0.00, 0.00, 0.00, 0.00, -24862.11, 0.00, 0.00, 0.00, 0.00, 0.00, 0.00, 0.00, 0.00, 0.00, 0.000, 0.000, 0.000, 15:21:07.213
96, 0.00, 0.00, 0.00, 0.00, 0.00, 0.00, -24773.11, 0.00, 0.00, 0.00, 0.00, 0.00, 0.00, 0.00, 0.00, 0.00, 0.000, 0.000, 0.000, 15:21:07.213
97, 0.00, 0.00, 0.00, 0.00, 0.00, 0.00, -24812.18, 0.00, 0.00, 0.00, 0.00, 0.00, 0.00, 0.00, 0.00, 0.00, 0.000, 0.000, 0.000, 15:21:07.214
98, 0.00, 0.00, 0.00, 0.00, 0.00, 0.00, -24817.57, 0.00, 0.00, 0.00, 0.00, 0.00, 0.00, 0.00, 0.00, 0.00, 0.000, 0.000, 0.000, 15:21:07.214
99, 0.00, 0.00, 0.00, 0.00, 0.00, 0.00, -24775.66, 0.00, 0.00, 0.00, 0.00, 0.00, 0.00, 0.00, 0.00, 0.00, 0.000, 0.000, 0.000, 15:21:07.214
100, 0.00, 0.00, 0.00, 0.00, 0.00, 0.00, -24884.73, 0.00, 0.00, 0.00, 0.00, 0.00, 0.00, 0.00, 0.00, 0.00, 0.000, 0.000, 0.000, 15:21:07.214
101, 0.00, 0.00, 0.00, 0.00, 0.00, 0.00, -24728.31, 0.00, 0.00, 0.00, 0.00, 0.00, 0.00, 0.00, 0.00, 0.00, 0.000, 0.000, 0.000, 15:21:07.214
102, 0.00, 0.00, 0.00, 0.00, 0.00, 0.00, -24927.04, 0.00, 0.00, 0.00, 0.00, 0.00, 0.00, 0.00, 0.00, 0.00, 0.000, 0.000, 0.000, 15:21:07.215
103, 0.00, 0.00, 0.00, 0.00, 0.00, 0.00, -24706.77, 0.00, 0.00, 0.00, 0.00, 0.00, 0.00, 0.00, 0.00, 0.00, 0.000, 0.000, 0.000, 15:21:07.215
104, 0.00, 0.00, 0.00, 0.00, 0.00, 0.00, -24970.21, 0.00, 0.00, 0.00, 0.00, 0.00, 0.00, 0.00, 0.00, 0.00, 0.000, 0.000, 0.000, 15:21:07.215
105, 0.00, 0.00, 0.00, 0.00, 0.00, 0.00, -24687.72, 0.00, 0.00, 0.00, 0.00, 0.00, 0.00, 0.00, 0.00, 0.00, 0.000, 0.000, 0.000, 15:21:07.215
106, 0.00, 0.00, 0.00, 0.00, 0.00, 0.00, -24999.71, 0.00, 0.00, 0.00, 0.00, 0.00, 0.00, 0.00, 0.00, 0.00, 0.000, 0.000, 0.000, 15:21:07.215
107, 0.00, 0.00, 0.00, 0.00, 0.00, 0.00, -24659.07, 0.00, 0.00, 0.00, 0.00, 0.00, 0.00, 0.00, 0.00, 0.00, 0.000, 0.000, 0.000, 15:21:07.216
108, 0.00, 0.00, 0.00, 0.00, 0.00, 0.00, -25023.98, 0.00, 0.00, 0.00, 0.00, 0.00, 0.00, 0.00, 0.00, 0.00, 0.000, 0.000, 0.000, 15:21:07.216
109, 0.00, 0.00, 0.00, 0.00, 0.00, 0.00, -24655.47, 0.00, 0.00, 0.00, 0.00, 0.00, 0.00, 0.00, 0.00, 0.00, 0.000, 0.000, 0.000, 15:21:07.216
110, 0.00, 0.00, 0.00, 0.00, 0.00, 0.00, -25031.11, 0.00, 0.00, 0.00, 0.00, 0.00, 0.00, 0.00, 0.00, 0.00, 0.000, 0.000, 0.000, 15:21:07.216
111, 0.00, 0.00, 0.00, 0.00, 0.00, 0.00, -24655.16, 0.00, 0.00, 0.00, 0.00, 0.00, 0.00, 0.00, 0.00, 0.00, 0.000, 0.000, 0.000, 15:21:07.216
112, 0.00, 0.00, 0.00, 0.00, 0.00, 0.00, -25026.26, 0.00, 0.00, 0.00, 0.00, 0.00, 0.00, 0.00, 0.00, 0.00, 0.000, 0.000, 0.000, 15:21:07.216
113, 0.00, 0.00, 0.00, 0.00, 0.00, 0.00, -24669.06, 0.00, 0.00, 0.00, 0.00, 0.00, 0.00, 0.00, 0.00, 0.00, 0.000, 0.000, 0.000, 15:21:07.216
114, 0.00, 0.00, 0.00, 0.00, 0.00, 0.00, -25016.54, 0.00, 0.00, 0.00, 0.00, 0.00, 0.00, 0.00, 0.00, 0.00, 0.000, 0.000, 0.000, 15:21:07.216
115, 0.00, 0.00, 0.00, 0.00, 0.00, 0.00, -24688.62, 0.00, 0.00, 0.00, 0.00, 0.00, 0.00, 0.00, 0.00, 0.00, 0.000, 0.000, 0.000, 15:21:07.217
116, 0.00, 0.00, 0.00, 0.00, 0.00, 0.00, -24972.62, 0.00, 0.00, 0.00, 0.00, 0.00, 0.00, 0.00, 0.00, 0.00, 0.000, 0.000, 0.000, 15:21:07.217
117, 0.00, 0.00, 0.00, 0.00, 0.00, 0.00, -24745.17, 0.00, 0.00, 0.00, 0.00, 0.00, 0.00, 0.00, 0.00, 0.00, 0.000, 0.000, 0.000, 15:21:07.217
118, 0.00, 0.00, 0.00, 0.00, 0.00, 0.00, -24943.45, 0.00, 0.00, 0.00, 0.00, 0.00, 0.00, 0.00, 0.00, 0.00, 0.000, 0.000, 0.000, 15:21:07.217
119, 0.00, 0.00, 0.00, 0.00, 0.00, 0.00, -24784.11, 0.00, 0.00, 0.00, 0.00, 0.00, 0.00, 0.00, 0.00, 0.00, 0.000, 0.000, 0.000, 15:21:07.217
120, 0.00, 0.00, 0.00, 0.00, 0.00, 0.00, -24908.80, 0.00, 0.00, 0.00, 0.00, 0.00, 0.00, 0.00, 0.00, 0.00, 0.000, 0.000, 0.000, 15:21:07.217
121, 0.00, 0.00, 0.00, 0.00, 0.00, 0.00, -24837.95, 0.00, 0.00, 0.00, 0.00, 0.00, 0.00, 0.00, 0.00, 0.00, 0.000, 0.000, 0.000, 15:21:07.218
122, 0.00, 0.00, 0.00, 0.00, 0.00, 0.00, -24873.27, 0.00, 0.00, 0.00, 0.00, 0.00, 0.00, 0.00, 0.00, 0.00, 0.000, 0.000, 0.000, 15:21:07.218
123, 0.00, 0.00, 0.00, 0.00, 0.00, 0.00, -24895.51, 0.00, 0.00, 0.00, 0.00, 0.00, 0.00, 0.00, 0.00, 0.00, 0.000, 0.000, 0.000, 15:21:07.218
124, 0.00, 0.00, 0.00, 0.00, 0.00, 0.00, -24831.94, 0.00, 0.00, 0.00, 0.00, 0.00, 0.00, 0.00, 0.00, 0.00, 0.000, 0.000, 0.000, 15:21:07.218
125, 0.00, 0.00, 0.00, 0.00, 0.00, 0.00, -24935.70, 0.00, 0.00, 0.00, 0.00, 0.00, 0.00, 0.00, 0.00, 0.00, 0.000, 0.000, 0.000, 15:21:07.218
126, 0.00, 0.00, 0.00, 0.00, 0.00, 0.00, -24779.41, 0.00, 0.00, 0.00, 0.00, 0.00, 0.00, 0.00, 0.00, 0.00, 0.000, 0.000, 0.000, 15:21:07.218
127, 0.00, 0.00, 0.00, 0.00, 0.00, 0.00, -24989.29, 0.00, 0.00, 0.00, 0.00, 0.00, 0.00, 0.00, 0.00, 0.00, 0.000, 0.000, 0.000, 15:21:07.219
0, 0.00, 0.00, 0.00, 0.00, 0.00, 0.00, -24745.35, 0.00, 0.00, 0.00, 0.00, 0.00, 0.00, 0.00, 0.00, 0.00, 0.000, 0.000, 0.000, 15:21:07.219
1, 0.00, 0.00, 0.00, 0.00, 0.00, 0.00, -25024.88, 0.00, 0.00, 0.00, 0.00, 0.00, 0.00, 0.00, 0.00, 0.00, 0.000, 0.000, 0.000, 15:21:07.219
2, 0.00, 0.00, 0.00, 0.00, 0.00, 0.00, -24725.59, 0.00, 0.00, 0.00, 0.00, 0.00, 0.00, 0.00, 0.00, 0.00, 0.000, 0.000, 0.000, 15:21:07.219
3, 0.00, 0.00, 0.00, 0.00, 0.00, 0.00, -25047.14, 0.00, 0.00, 0.00, 0.00, 0.00, 0.00, 0.00, 0.00, 0.00, 0.000, 0.000, 0.000, 15:21:07.219
4, 0.00, 0.00, 0.00, 0.00, 0.00, 0.00, -24695.46, 0.00, 0.00, 0.00, 0.00, 0.00, 0.00, 0.00, 0.00, 0.00, 0.000, 0.000, 0.000, 15:21:07.219
5, 0.00, 0.00, 0.00, 0.00, 0.00, 0.00, -25073.45, 0.00, 0.00, 0.00, 0.00, 0.00, 0.00, 0.00, 0.00, 0.00, 0.000, 0.000, 0.000, 15:21:07.219
6, 0.00, 0.00, 0.00, 0.00, 0.00, 0.00, -24697.43, 0.00, 0.00, 0.00, 0.00, 0.00, 0.00, 0.00, 0.00, 0.00, 0.000, 0.000, 0.000, 15:21:07.219
7, 0.00, 0.00, 0.00, 0.00, 0.00, 0.00, -25071.64, 0.00, 0.00, 0.00, 0.00, 0.00, 0.00, 0.00, 0.00, 0.00, 0.000, 0.000, 0.000, 15:21:07.219
8, 0.00, 0.00, 0.00, 0.00, 0.00, 0.00, -24696.35, 0.00, 0.00, 0.00, 0.00, 0.00, 0.00, 0.00, 0.00, 0.00, 0.000, 0.000, 0.000, 15:21:07.219
9, 0.00, 0.00, 0.00, 0.00, 0.00, 0.00, -25068.02, 0.00, 0.00, 0.00, 0.00, 0.00, 0.00, 0.00, 0.00, 0.00, 0.000, 0.000, 0.000, 15:21:07.220
10, 0.00, 0.00, 0.00, 0.00, 0.00, 0.00, -24715.24, 0.00, 0.00, 0.00, 0.00, 0.00, 0.00, 0.00, 0.00, 0.00, 0.000, 0.000, 0.000, 15:21:07.220
11, 0.00, 0.00, 0.00, 0.00, 0.00, 0.00, -25053.91, 0.00, 0.00, 0.00, 0.00, 0.00, 0.00, 0.00, 0.00, 0.00, 0.000, 0.000, 0.000, 15:21:07.220
12, 0.00, 0.00, 0.00, 0.00, 0.00, 0.00, -24752.86, 0.00, 0.00, 0.00, 0.00, 0.00, 0.00, 0.00, 0.00, 0.00, 0.000, 0.000, 0.000, 15:21:07.220
13, 0.00, 0.00, 0.00, 0.00, 0.00, 0.00, -25031.38, 0.00, 0.00, 0.00, 0.00, 0.00, 0.00, 0.00, 0.00, 0.00, 0.000, 0.000, 0.000, 15:21:07.220
14, 0.00, 0.00, 0.00, 0.00, 0.00, 0.00, -24786.25, 0.00, 0.00, 0.00, 0.00, 0.00, 0.00, 0.00, 0.00, 0.00, 0.000, 0.000, 0.000, 15:21:07.220
15, 0.00, 0.00, 0.00, 0.00, 0.00, 0.00, -24986.21, 0.00, 0.00, 0.00, 0.00, 0.00, 0.00, 0.00, 0.00, 0.00, 0.000, 0.000, 0.000, 15:21:07.693
16, 0.00, 0.00, 0.00, 0.00, 0.00, 0.00, -24832.68, 0.00, 0.00, 0.00, 0.00, 0.00, 0.00, 0.00, 0.00, 0.00, 0.000, 0.000, 0.000, 15:21:07.693
17, 0.00, 0.00, 0.00, 0.00, 0.00, 0.00, -24940.90, 0.00, 0.00, 0.00, 0.00, 0.00, 0.00, 0.00, 0.00, 0.00, 0.000, 0.000, 0.000, 15:21:07.693
18, 0.00, 0.00, 0.00, 0.00, 0.00, 0.00, -24900.47, 0.00, 0.00, 0.00, 0.00, 0.00, 0.00, 0.00, 0.00, 0.00, 0.000, 0.000, 0.000, 15:21:07.693
19, 0.00, 0.00, 0.00, 0.00, 0.00, 0.00, -24906.37, 0.00, 0.00, 0.00, 0.00, 0.00, 0.00, 0.00, 0.00, 0.00, 0.000, 0.000, 0.000, 15:21:07.693
20, 0.00, 0.00, 0.00, 0.00, 0.00, 0.00, -24925.77, 0.00, 0.00, 0.00, 0.00, 0.00, 0.00, 0.00, 0.00, 0.00, 0.000, 0.000, 0.000, 15:21:07.693
21, 0.00, 0.00, 0.00, 0.00, 0.00, 0.00, -24842.71, 0.00, 0.00, 0.00, 0.00, 0.00, 0.00, 0.00, 0.00, 0.00, 0.000, 0.000, 0.000, 15:21:07.694
22, 0.00, 0.00, 0.00, 0.00, 0.00, 0.00, -24986.93, 0.00, 0.00, 0.00, 0.00, 0.00, 0.00, 0.00, 0.00, 0.00, 0.000, 0.000, 0.000, 15:21:07.694
23, 0.00, 0.00, 0.00, 0.00, 0.00, 0.00, -24819.60, 0.00, 0.00, 0.00, 0.00, 0.00, 0.00, 0.00, 0.00, 0.00, 0.000, 0.000, 0.000, 15:21:07.694
24, 0.00, 0.00, 0.00, 0.00, 0.00, 0.00, -25031.34, 0.00, 0.00, 0.00, 0.00, 0.00, 0.00, 0.00, 0.00, 0.00, 0.000, 0.000, 0.000, 15:21:07.694
25, 0.00, 0.00, 0.00, 0.00, 0.00, 0.00, -24776.57, 0.00, 0.00, 0.00, 0.00, 0.00, 0.00, 0.00, 0.00, 0.00, 0.000, 0.000, 0.000, 15:21:07.694
26, 0.00, 0.00, 0.00, 0.00, 0.00, 0.00, -25062.92, 0.00, 0.00, 0.00, 0.00, 0.00, 0.00, 0.00, 0.00, 0.00, 0.000, 0.000, 0.000, 15:21:07.694
27, 0.00, 0.00, 0.00, 0.00, 0.00, 0.00, -24757.86, 0.00, 0.00, 0.00, 0.00, 0.00, 0.00, 0.00, 0.00, 0.00, 0.000, 0.000, 0.000, 15:21:07.694
28, 0.00, 0.00, 0.00, 0.00, 0.00, 0.00, -25099.71, 0.00, 0.00, 0.00, 0.00, 0.00, 0.00, 0.00, 0.00, 0.00, 0.000, 0.000, 0.000, 15:21:07.695
29, 0.00, 0.00, 0.00, 0.00, 0.00, 0.00, -24729.01, 0.00, 0.00, 0.00, 0.00, 0.00, 0.00, 0.00, 0.00, 0.00, 0.000, 0.000, 0.000, 15:21:07.695
30, 0.00, 0.00, 0.00, 0.00, 0.00, 0.00, -25108.07, 0.00, 0.00, 0.00, 0.00, 0.00, 0.00, 0.00, 0.00, 0.00, 0.000, 0.000, 0.000, 15:21:07.699
31, 0.00, 0.00, 0.00, 0.00, 0.00, 0.00, -24735.69, 0.00, 0.00, 0.00, 0.00, 0.00, 0.00, 0.00, 0.00, 0.00, 0.000, 0.000, 0.000, 15:21:07.700
32, 0.00, 0.00, 0.00, 0.00, 0.00, 0.00, -25126.80, 0.00, 0.00, 0.00, 0.00, 0.00, 0.00, 0.00, 0.00, 0.00, 0.000, 0.000, 0.000, 15:21:07.700
33, 0.00, 0.00, 0.00, 0.00, 0.00, 0.00, -24740.50, 0.00, 0.00, 0.00, 0.00, 0.00, 0.00, 0.00, 0.00, 0.00, 0.000, 0.000, 0.000, 15:21:07.700
34, 0.00, 0.00, 0.00, 0.00, 0.00, 0.00, -25105.30, 0.00, 0.00, 0.00, 0.00, 0.00, 0.00, 0.00, 0.00, 0.00, 0.000, 0.000, 0.000, 15:21:07.700
35, 0.00, 0.00, 0.00, 0.00, 0.00, 0.00, -24761.44, 0.00, 0.00, 0.00, 0.00, 0.00, 0.00, 0.00, 0.00, 0.00, 0.000, 0.000, 0.000, 15:21:07.700
36, 0.00, 0.00, 0.00, 0.00, 0.00, 0.00, -25084.47, 0.00, 0.00, 0.00, 0.00, 0.00, 0.00, 0.00, 0.00, 0.00, 0.000, 0.000, 0.000, 15:21:07.701
37, 0.00, 0.00, 0.00, 0.00, 0.00, 0.00, -24778.99, 0.00, 0.00, 0.00, 0.00, 0.00, 0.00, 0.00, 0.00, 0.00, 0.000, 0.000, 0.000, 15:21:07.701
38, 0.00, 0.00, 0.00, 0.00, 0.00, 0.00, -25039.16, 0.00, 0.00, 0.00, 0.00, 0.00, 0.00, 0.00, 0.00, 0.00, 0.000, 0.000, 0.000, 15:21:07.701
39, 0.00, 0.00, 0.00, 0.00, 0.00, 0.00, -24825.95, 0.00, 0.00, 0.00, 0.00, 0.00, 0.00, 0.00, 0.00, 0.00, 0.000, 0.000, 0.000, 15:21:07.701
40, 0.00, 0.00, 0.00, 0.00, 0.00, 0.00, -24995.55, 0.00, 0.00, 0.00, 0.00, 0.00, 0.00, 0.00, 0.00, 0.00, 0.000, 0.000, 0.000, 15:21:07.701
41, 0.00, 0.00, 0.00, 0.00, 0.00, 0.00, -24860.26, 0.00, 0.00, 0.00, 0.00, 0.00, 0.00, 0.00, 0.00, 0.00, 0.000, 0.000, 0.000, 15:21:07.701
42, 0.00, 0.00, 0.00, 0.00, 0.00, 0.00, -24933.86, 0.00, 0.00, 0.00, 0.00, 0.00, 0.00, 0.00, 0.00, 0.00, 0.000, 0.000, 0.000, 15:21:07.702
43, 0.00, 0.00, 0.00, 0.00, 0.00, 0.00, -24909.45, 0.00, 0.00, 0.00, 0.00, 0.00, 0.00, 0.00, 0.00, 0.00, 0.000, 0.000, 0.000, 15:21:07.702
44, 0.00, 0.00, 0.00, 0.00, 0.00, 0.00, -24898.93, 0.00, 0.00, 0.00, 0.00, 0.00, 0.00, 0.00, 0.00, 0.00, 0.000, 0.000, 0.000, 15:21:07.702
45, 0.00, 0.00, 0.00, 0.00, 0.00, 0.00, -24963.79, 0.00, 0.00, 0.00, 0.00, 0.00, 0.00, 0.00, 0.00, 0.00, 0.000, 0.000, 0.000, 15:21:07.702
46, 0.00, 0.00, 0.00, 0.00, 0.00, 0.00, -24854.89, 0.00, 0.00, 0.00, 0.00, 0.00, 0.00, 0.00, 0.00, 0.00, 0.000, 0.000, 0.000, 15:21:07.702
47, 0.00, 0.00, 0.00, 0.00, 0.00, 0.00, -25022.24, 0.00, 0.00, 0.00, 0.00, 0.00, 0.00, 0.00, 0.00, 0.00, 0.000, 0.000, 0.000, 15:21:07.703
48, 0.00, 0.00, 0.00, 0.00, 0.00, 0.00, -24828.32, 0.00, 0.00, 0.00, 0.00, 0.00, 0.00, 0.00, 0.00, 0.00, 0.000, 0.000, 0.000, 15:21:07.703
49, 0.00, 0.00, 0.00, 0.00, 0.00, 0.00, -25066.90, 0.00, 0.00, 0.00, 0.00, 0.00, 0.00, 0.00, 0.00, 0.00, 0.000, 0.000, 0.000, 15:21:07.703
50, 0.00, 0.00, 0.00, 0.00, 0.00, 0.00, -24797.45, 0.00, 0.00, 0.00, 0.00, 0.00, 0.00, 0.00, 0.00, 0.00, 0.000, 0.000, 0.000, 15:21:07.703
51, 0.00,